# E (eV)  ldosup(E)  ldosdw(E) pdosup(E)  pdosdw(E) 
-20.000  0.325E-01  0.321E-01  0.325E-01  0.321E-01
-19.900  0.493E-01  0.489E-01  0.493E-01  0.489E-01
-19.800  0.631E-01  0.629E-01  0.631E-01  0.629E-01
-19.700  0.679E-01  0.679E-01  0.679E-01  0.679E-01
-19.600  0.672E-01  0.672E-01  0.672E-01  0.672E-01
-19.500  0.656E-01  0.656E-01  0.656E-01  0.656E-01
-19.400  0.641E-01  0.641E-01  0.641E-01  0.641E-01
-19.300  0.627E-01  0.627E-01  0.627E-01  0.627E-01
-19.200  0.614E-01  0.614E-01  0.614E-01  0.614E-01
-19.100  0.603E-01  0.602E-01  0.603E-01  0.602E-01
-19.000  0.592E-01  0.592E-01  0.592E-01  0.592E-01
-18.900  0.581E-01  0.581E-01  0.581E-01  0.581E-01
-18.800  0.574E-01  0.573E-01  0.574E-01  0.573E-01
-18.700  0.562E-01  0.562E-01  0.562E-01  0.562E-01
-18.600  0.558E-01  0.557E-01  0.558E-01  0.557E-01
-18.500  0.546E-01  0.546E-01  0.546E-01  0.546E-01
-18.400  0.542E-01  0.541E-01  0.542E-01  0.541E-01
-18.300  0.534E-01  0.534E-01  0.534E-01  0.534E-01
-18.200  0.525E-01  0.524E-01  0.525E-01  0.524E-01
-18.100  0.527E-01  0.527E-01  0.527E-01  0.527E-01
-18.000  0.509E-01  0.509E-01  0.509E-01  0.509E-01
-17.900  0.518E-01  0.517E-01  0.518E-01  0.517E-01
-17.800  0.503E-01  0.503E-01  0.503E-01  0.503E-01
-17.700  0.500E-01  0.499E-01  0.500E-01  0.499E-01
-17.600  0.503E-01  0.503E-01  0.503E-01  0.503E-01
-17.500  0.485E-01  0.485E-01  0.485E-01  0.485E-01
-17.400  0.493E-01  0.492E-01  0.493E-01  0.492E-01
-17.300  0.487E-01  0.487E-01  0.487E-01  0.487E-01
-17.200  0.476E-01  0.475E-01  0.476E-01  0.475E-01
-17.100  0.483E-01  0.483E-01  0.483E-01  0.483E-01
-17.000  0.476E-01  0.475E-01  0.476E-01  0.475E-01
-16.900  0.469E-01  0.468E-01  0.469E-01  0.468E-01
-16.800  0.474E-01  0.473E-01  0.474E-01  0.473E-01
-16.700  0.468E-01  0.467E-01  0.468E-01  0.467E-01
-16.600  0.464E-01  0.463E-01  0.464E-01  0.463E-01
-16.500  0.465E-01  0.464E-01  0.465E-01  0.464E-01
-16.400  0.463E-01  0.463E-01  0.463E-01  0.463E-01
-16.300  0.462E-01  0.461E-01  0.462E-01  0.461E-01
-16.200  0.458E-01  0.458E-01  0.458E-01  0.458E-01
-16.100  0.460E-01  0.459E-01  0.460E-01  0.459E-01
-16.000  0.462E-01  0.462E-01  0.462E-01  0.462E-01
-15.900  0.459E-01  0.458E-01  0.459E-01  0.458E-01
-15.800  0.457E-01  0.456E-01  0.457E-01  0.456E-01
-15.700  0.469E-01  0.467E-01  0.469E-01  0.467E-01
-15.600  0.467E-01  0.466E-01  0.467E-01  0.466E-01
-15.500  0.462E-01  0.460E-01  0.462E-01  0.460E-01
-15.400  0.476E-01  0.474E-01  0.476E-01  0.474E-01
-15.300  0.491E-01  0.490E-01  0.491E-01  0.490E-01
-15.200  0.486E-01  0.484E-01  0.486E-01  0.484E-01
-15.100  0.503E-01  0.501E-01  0.503E-01  0.501E-01
-15.000  0.551E-01  0.548E-01  0.551E-01  0.548E-01
-14.900  0.596E-01  0.593E-01  0.596E-01  0.593E-01
-14.800  0.629E-01  0.626E-01  0.629E-01  0.626E-01
-14.700  0.620E-01  0.619E-01  0.620E-01  0.619E-01
-14.600  0.532E-01  0.533E-01  0.532E-01  0.533E-01
-14.500  0.411E-01  0.411E-01  0.411E-01  0.411E-01
-14.400  0.342E-01  0.341E-01  0.342E-01  0.341E-01
-14.300  0.330E-01  0.329E-01  0.330E-01  0.329E-01
-14.200  0.270E-01  0.271E-01  0.270E-01  0.271E-01
-14.100  0.214E-01  0.213E-01  0.214E-01  0.213E-01
-14.000  0.222E-01  0.220E-01  0.222E-01  0.220E-01
-13.900  0.193E-01  0.193E-01  0.193E-01  0.193E-01
-13.800  0.166E-01  0.165E-01  0.166E-01  0.165E-01
-13.700  0.214E-01  0.213E-01  0.214E-01  0.213E-01
-13.600  0.251E-01  0.251E-01  0.251E-01  0.251E-01
-13.500  0.247E-01  0.247E-01  0.247E-01  0.247E-01
-13.400  0.253E-01  0.253E-01  0.253E-01  0.253E-01
-13.300  0.255E-01  0.256E-01  0.255E-01  0.256E-01
-13.200  0.251E-01  0.251E-01  0.251E-01  0.251E-01
-13.100  0.267E-01  0.267E-01  0.267E-01  0.267E-01
-13.000  0.311E-01  0.312E-01  0.311E-01  0.312E-01
-12.900  0.375E-01  0.377E-01  0.375E-01  0.377E-01
-12.800  0.396E-01  0.399E-01  0.396E-01  0.399E-01
-12.700  0.373E-01  0.375E-01  0.373E-01  0.375E-01
-12.600  0.341E-01  0.344E-01  0.341E-01  0.344E-01
-12.500  0.323E-01  0.324E-01  0.323E-01  0.324E-01
-12.400  0.311E-01  0.312E-01  0.311E-01  0.312E-01
-12.300  0.295E-01  0.296E-01  0.295E-01  0.296E-01
-12.200  0.290E-01  0.291E-01  0.290E-01  0.291E-01
-12.100  0.277E-01  0.277E-01  0.277E-01  0.277E-01
-12.000  0.268E-01  0.268E-01  0.268E-01  0.268E-01
-11.900  0.264E-01  0.265E-01  0.264E-01  0.265E-01
-11.800  0.249E-01  0.249E-01  0.249E-01  0.249E-01
-11.700  0.247E-01  0.247E-01  0.247E-01  0.247E-01
-11.600  0.239E-01  0.239E-01  0.239E-01  0.239E-01
-11.500  0.227E-01  0.227E-01  0.227E-01  0.227E-01
-11.400  0.227E-01  0.227E-01  0.227E-01  0.227E-01
-11.300  0.217E-01  0.218E-01  0.217E-01  0.218E-01
-11.200  0.208E-01  0.208E-01  0.208E-01  0.208E-01
-11.100  0.209E-01  0.209E-01  0.209E-01  0.209E-01
-11.000  0.201E-01  0.201E-01  0.201E-01  0.201E-01
-10.900  0.197E-01  0.197E-01  0.197E-01  0.197E-01
-10.800  0.197E-01  0.197E-01  0.197E-01  0.197E-01
-10.700  0.197E-01  0.197E-01  0.197E-01  0.197E-01
-10.600  0.188E-01  0.189E-01  0.188E-01  0.189E-01
-10.500  0.191E-01  0.191E-01  0.191E-01  0.191E-01
-10.400  0.191E-01  0.191E-01  0.191E-01  0.191E-01
-10.300  0.181E-01  0.181E-01  0.181E-01  0.181E-01
-10.200  0.183E-01  0.183E-01  0.183E-01  0.183E-01
-10.100  0.188E-01  0.188E-01  0.188E-01  0.188E-01
-10.000  0.173E-01  0.173E-01  0.173E-01  0.173E-01
 -9.900  0.171E-01  0.171E-01  0.171E-01  0.171E-01
 -9.800  0.189E-01  0.189E-01  0.189E-01  0.189E-01
 -9.700  0.168E-01  0.168E-01  0.168E-01  0.168E-01
 -9.600  0.160E-01  0.160E-01  0.160E-01  0.160E-01
 -9.500  0.175E-01  0.175E-01  0.175E-01  0.175E-01
 -9.400  0.170E-01  0.170E-01  0.170E-01  0.170E-01
 -9.300  0.162E-01  0.162E-01  0.162E-01  0.162E-01
 -9.200  0.149E-01  0.149E-01  0.149E-01  0.149E-01
 -9.100  0.166E-01  0.166E-01  0.166E-01  0.166E-01
 -9.000  0.169E-01  0.169E-01  0.169E-01  0.169E-01
 -8.900  0.136E-01  0.136E-01  0.136E-01  0.136E-01
 -8.800  0.151E-01  0.151E-01  0.151E-01  0.151E-01
 -8.700  0.162E-01  0.162E-01  0.162E-01  0.162E-01
 -8.600  0.141E-01  0.142E-01  0.141E-01  0.142E-01
 -8.500  0.140E-01  0.140E-01  0.140E-01  0.140E-01
 -8.400  0.141E-01  0.141E-01  0.141E-01  0.141E-01
 -8.300  0.145E-01  0.145E-01  0.145E-01  0.145E-01
 -8.200  0.138E-01  0.139E-01  0.138E-01  0.139E-01
 -8.100  0.121E-01  0.121E-01  0.121E-01  0.121E-01
 -8.000  0.136E-01  0.136E-01  0.136E-01  0.136E-01
 -7.900  0.135E-01  0.136E-01  0.135E-01  0.136E-01
 -7.800  0.115E-01  0.115E-01  0.115E-01  0.115E-01
 -7.700  0.120E-01  0.120E-01  0.120E-01  0.120E-01
 -7.600  0.122E-01  0.122E-01  0.122E-01  0.122E-01
 -7.500  0.117E-01  0.117E-01  0.117E-01  0.117E-01
 -7.400  0.109E-01  0.109E-01  0.109E-01  0.109E-01
 -7.300  0.101E-01  0.101E-01  0.101E-01  0.101E-01
 -7.200  0.109E-01  0.109E-01  0.109E-01  0.109E-01
 -7.100  0.100E-01  0.100E-01  0.100E-01  0.100E-01
 -7.000  0.830E-02  0.832E-02  0.830E-02  0.832E-02
 -6.900  0.866E-02  0.866E-02  0.866E-02  0.866E-02
 -6.800  0.835E-02  0.837E-02  0.835E-02  0.837E-02
 -6.700  0.733E-02  0.735E-02  0.733E-02  0.735E-02
 -6.600  0.675E-02  0.676E-02  0.675E-02  0.676E-02
 -6.500  0.639E-02  0.639E-02  0.639E-02  0.639E-02
 -6.400  0.654E-02  0.655E-02  0.654E-02  0.655E-02
 -6.300  0.575E-02  0.577E-02  0.575E-02  0.577E-02
 -6.200  0.498E-02  0.498E-02  0.498E-02  0.498E-02
 -6.100  0.517E-02  0.517E-02  0.517E-02  0.517E-02
 -6.000  0.507E-02  0.508E-02  0.507E-02  0.508E-02
 -5.900  0.446E-02  0.447E-02  0.446E-02  0.447E-02
 -5.800  0.381E-02  0.381E-02  0.381E-02  0.381E-02
 -5.700  0.409E-02  0.408E-02  0.409E-02  0.408E-02
 -5.600  0.400E-02  0.401E-02  0.400E-02  0.401E-02
 -5.500  0.305E-02  0.306E-02  0.305E-02  0.306E-02
 -5.400  0.306E-02  0.306E-02  0.306E-02  0.306E-02
 -5.300  0.320E-02  0.320E-02  0.320E-02  0.320E-02
 -5.200  0.266E-02  0.267E-02  0.266E-02  0.267E-02
 -5.100  0.227E-02  0.227E-02  0.227E-02  0.227E-02
 -5.000  0.236E-02  0.236E-02  0.236E-02  0.236E-02
 -4.900  0.215E-02  0.215E-02  0.215E-02  0.215E-02
 -4.800  0.175E-02  0.175E-02  0.175E-02  0.175E-02
 -4.700  0.164E-02  0.164E-02  0.164E-02  0.164E-02
 -4.600  0.159E-02  0.159E-02  0.159E-02  0.159E-02
 -4.500  0.124E-02  0.124E-02  0.124E-02  0.124E-02
 -4.400  0.112E-02  0.112E-02  0.112E-02  0.112E-02
 -4.300  0.103E-02  0.103E-02  0.103E-02  0.103E-02
 -4.200  0.783E-03  0.785E-03  0.783E-03  0.785E-03
 -4.100  0.683E-03  0.684E-03  0.683E-03  0.684E-03
 -4.000  0.538E-03  0.540E-03  0.538E-03  0.540E-03
 -3.900  0.394E-03  0.395E-03  0.394E-03  0.395E-03
 -3.800  0.278E-03  0.279E-03  0.278E-03  0.279E-03
 -3.700  0.161E-03  0.162E-03  0.161E-03  0.162E-03
 -3.600  0.735E-04  0.743E-04  0.735E-04  0.743E-04
 -3.500  0.270E-04  0.273E-04  0.270E-04  0.273E-04
 -3.400  0.142E-04  0.143E-04  0.142E-04  0.143E-04
 -3.300  0.114E-04  0.115E-04  0.114E-04  0.115E-04
 -3.200  0.103E-04  0.103E-04  0.103E-04  0.103E-04
 -3.100  0.920E-05  0.928E-05  0.920E-05  0.928E-05
 -3.000  0.749E-05  0.759E-05  0.749E-05  0.759E-05
 -2.900  0.681E-05  0.682E-05  0.681E-05  0.682E-05
 -2.800  0.633E-05  0.638E-05  0.633E-05  0.638E-05
 -2.700  0.464E-05  0.478E-05  0.464E-05  0.478E-05
 -2.600  0.349E-05  0.351E-05  0.349E-05  0.351E-05
 -2.500  0.362E-05  0.362E-05  0.362E-05  0.362E-05
 -2.400  0.256E-05  0.267E-05  0.256E-05  0.267E-05
 -2.300  0.153E-05  0.155E-05  0.153E-05  0.155E-05
 -2.200  0.179E-05  0.176E-05  0.179E-05  0.176E-05
 -2.100  0.152E-05  0.157E-05  0.152E-05  0.157E-05
 -2.000  0.804E-06  0.835E-06  0.804E-06  0.835E-06
 -1.900  0.763E-06  0.750E-06  0.763E-06  0.750E-06
 -1.800  0.787E-06  0.801E-06  0.787E-06  0.801E-06
 -1.700  0.455E-06  0.478E-06  0.455E-06  0.478E-06
 -1.600  0.310E-06  0.309E-06  0.310E-06  0.309E-06
 -1.500  0.325E-06  0.327E-06  0.325E-06  0.327E-06
 -1.400  0.216E-06  0.227E-06  0.216E-06  0.227E-06
 -1.300  0.122E-06  0.124E-06  0.122E-06  0.124E-06
 -1.200  0.110E-06  0.111E-06  0.110E-06  0.111E-06
 -1.100  0.717E-07  0.760E-07  0.717E-07  0.760E-07
 -1.000  0.376E-07  0.386E-07  0.376E-07  0.386E-07
 -0.900  0.277E-07  0.286E-07  0.277E-07  0.286E-07
 -0.800  0.147E-07  0.162E-07  0.147E-07  0.162E-07
 -0.700  0.602E-08  0.664E-08  0.602E-08  0.664E-08
 -0.600  0.247E-08  0.287E-08  0.247E-08  0.287E-08
 -0.500  0.140E-08  0.135E-08  0.140E-08  0.135E-08
 -0.400  0.368E-08  0.324E-08  0.368E-08  0.324E-08
 -0.300  0.577E-08  0.564E-08  0.577E-08  0.564E-08
 -0.200  0.100E-07  0.904E-08  0.100E-07  0.904E-08
 -0.100  0.252E-07  0.233E-07  0.252E-07  0.233E-07
  0.000  0.390E-07  0.383E-07  0.390E-07  0.383E-07
  0.100  0.613E-07  0.583E-07  0.613E-07  0.583E-07
  0.200  0.104E-06  0.101E-06  0.104E-06  0.101E-06
  0.300  0.161E-06  0.157E-06  0.161E-06  0.157E-06
  0.400  0.252E-06  0.246E-06  0.252E-06  0.246E-06
  0.500  0.362E-06  0.352E-06  0.362E-06  0.352E-06
  0.600  0.615E-06  0.595E-06  0.615E-06  0.595E-06
  0.700  0.102E-05  0.994E-06  0.102E-05  0.994E-06
  0.800  0.204E-05  0.197E-05  0.204E-05  0.197E-05
  0.900  0.521E-05  0.505E-05  0.521E-05  0.505E-05
  1.000  0.929E-05  0.917E-05  0.929E-05  0.917E-05
  1.100  0.102E-04  0.102E-04  0.102E-04  0.102E-04
  1.200  0.942E-05  0.931E-05  0.942E-05  0.931E-05
  1.300  0.103E-04  0.101E-04  0.103E-04  0.101E-04
  1.400  0.122E-04  0.121E-04  0.122E-04  0.121E-04
  1.500  0.118E-04  0.119E-04  0.118E-04  0.119E-04
  1.600  0.969E-05  0.989E-05  0.969E-05  0.989E-05
  1.700  0.823E-05  0.834E-05  0.823E-05  0.834E-05
  1.800  0.730E-05  0.738E-05  0.730E-05  0.738E-05
  1.900  0.684E-05  0.688E-05  0.684E-05  0.688E-05
  2.000  0.635E-05  0.641E-05  0.635E-05  0.641E-05
  2.100  0.599E-05  0.602E-05  0.599E-05  0.602E-05
  2.200  0.579E-05  0.584E-05  0.579E-05  0.584E-05
  2.300  0.551E-05  0.553E-05  0.551E-05  0.553E-05
  2.400  0.549E-05  0.552E-05  0.549E-05  0.552E-05
  2.500  0.525E-05  0.527E-05  0.525E-05  0.527E-05
  2.600  0.514E-05  0.516E-05  0.514E-05  0.516E-05
  2.700  0.619E-05  0.617E-05  0.619E-05  0.617E-05
  2.800  0.168E-04  0.166E-04  0.168E-04  0.166E-04
  2.900  0.603E-04  0.596E-04  0.603E-04  0.596E-04
  3.000  0.118E-03  0.117E-03  0.118E-03  0.117E-03
  3.100  0.127E-03  0.127E-03  0.127E-03  0.127E-03
  3.200  0.103E-03  0.103E-03  0.103E-03  0.103E-03
  3.300  0.847E-04  0.846E-04  0.847E-04  0.846E-04
  3.400  0.716E-04  0.714E-04  0.716E-04  0.714E-04
  3.500  0.558E-04  0.556E-04  0.558E-04  0.556E-04
  3.600  0.392E-04  0.392E-04  0.392E-04  0.392E-04
  3.700  0.270E-04  0.268E-04  0.270E-04  0.268E-04
  3.800  0.200E-04  0.200E-04  0.200E-04  0.200E-04
  3.900  0.178E-04  0.178E-04  0.178E-04  0.178E-04
  4.000  0.284E-04  0.282E-04  0.284E-04  0.282E-04
  4.100  0.429E-04  0.428E-04  0.429E-04  0.428E-04
  4.200  0.428E-04  0.428E-04  0.428E-04  0.428E-04
  4.300  0.369E-04  0.367E-04  0.369E-04  0.367E-04
  4.400  0.311E-04  0.312E-04  0.311E-04  0.312E-04
  4.500  0.258E-04  0.258E-04  0.258E-04  0.258E-04
  4.600  0.243E-04  0.242E-04  0.243E-04  0.242E-04
  4.700  0.225E-04  0.227E-04  0.225E-04  0.227E-04
  4.800  0.207E-04  0.206E-04  0.207E-04  0.206E-04
  4.900  0.224E-04  0.223E-04  0.224E-04  0.223E-04
  5.000  0.233E-04  0.235E-04  0.233E-04  0.235E-04
  5.100  0.283E-04  0.282E-04  0.283E-04  0.282E-04
  5.200  0.411E-04  0.410E-04  0.411E-04  0.410E-04
  5.300  0.487E-04  0.488E-04  0.487E-04  0.488E-04
  5.400  0.512E-04  0.509E-04  0.512E-04  0.509E-04
  5.500  0.510E-04  0.510E-04  0.510E-04  0.510E-04
  5.600  0.545E-04  0.543E-04  0.545E-04  0.543E-04
  5.700  0.899E-04  0.887E-04  0.899E-04  0.887E-04
  5.800  0.149E-03  0.147E-03  0.149E-03  0.147E-03
  5.900  0.182E-03  0.181E-03  0.182E-03  0.181E-03
  6.000  0.203E-03  0.201E-03  0.203E-03  0.201E-03
  6.100  0.219E-03  0.218E-03  0.219E-03  0.218E-03
  6.200  0.238E-03  0.237E-03  0.238E-03  0.237E-03
  6.300  0.271E-03  0.269E-03  0.271E-03  0.269E-03
  6.400  0.327E-03  0.324E-03  0.327E-03  0.324E-03
  6.500  0.687E-03  0.660E-03  0.687E-03  0.660E-03
  6.600  0.380E-02  0.361E-02  0.380E-02  0.361E-02
  6.700  0.157E-01  0.152E-01  0.157E-01  0.152E-01
  6.800  0.337E-01  0.332E-01  0.337E-01  0.332E-01
  6.900  0.490E-01  0.486E-01  0.490E-01  0.486E-01
  7.000  0.640E-01  0.636E-01  0.640E-01  0.636E-01
  7.100  0.784E-01  0.781E-01  0.784E-01  0.781E-01
  7.200  0.833E-01  0.834E-01  0.833E-01  0.834E-01
  7.300  0.787E-01  0.789E-01  0.787E-01  0.789E-01
  7.400  0.835E-01  0.833E-01  0.835E-01  0.833E-01
  7.500  0.861E-01  0.863E-01  0.861E-01  0.863E-01
  7.600  0.747E-01  0.750E-01  0.747E-01  0.750E-01
  7.700  0.773E-01  0.771E-01  0.773E-01  0.771E-01
  7.800  0.863E-01  0.863E-01  0.863E-01  0.863E-01
  7.900  0.759E-01  0.764E-01  0.759E-01  0.764E-01
  8.000  0.608E-01  0.610E-01  0.608E-01  0.610E-01
  8.100  0.588E-01  0.587E-01  0.588E-01  0.587E-01
  8.200  0.550E-01  0.552E-01  0.550E-01  0.552E-01
  8.300  0.452E-01  0.454E-01  0.452E-01  0.454E-01
  8.400  0.389E-01  0.389E-01  0.389E-01  0.389E-01
  8.500  0.394E-01  0.394E-01  0.394E-01  0.394E-01
  8.600  0.377E-01  0.377E-01  0.377E-01  0.377E-01
  8.700  0.377E-01  0.376E-01  0.377E-01  0.376E-01
  8.800  0.347E-01  0.349E-01  0.347E-01  0.349E-01
  8.900  0.265E-01  0.266E-01  0.265E-01  0.266E-01
  9.000  0.276E-01  0.275E-01  0.276E-01  0.275E-01
  9.100  0.325E-01  0.324E-01  0.325E-01  0.324E-01
  9.200  0.341E-01  0.342E-01  0.341E-01  0.342E-01
  9.300  0.242E-01  0.245E-01  0.242E-01  0.245E-01
  9.400  0.181E-01  0.180E-01  0.181E-01  0.180E-01
  9.500  0.242E-01  0.240E-01  0.242E-01  0.240E-01
  9.600  0.306E-01  0.305E-01  0.306E-01  0.305E-01
  9.700  0.275E-01  0.277E-01  0.275E-01  0.277E-01
  9.800  0.182E-01  0.184E-01  0.182E-01  0.184E-01
  9.900  0.165E-01  0.164E-01  0.165E-01  0.164E-01
 10.000  0.220E-01  0.218E-01  0.220E-01  0.218E-01
 10.100  0.292E-01  0.290E-01  0.292E-01  0.290E-01
 10.200  0.255E-01  0.257E-01  0.255E-01  0.257E-01
 10.300  0.173E-01  0.173E-01  0.173E-01  0.173E-01
 10.400  0.187E-01  0.185E-01  0.187E-01  0.185E-01
 10.500  0.230E-01  0.229E-01  0.230E-01  0.229E-01
 10.600  0.207E-01  0.209E-01  0.207E-01  0.209E-01
 10.700  0.122E-01  0.125E-01  0.122E-01  0.125E-01
 10.800  0.850E-02  0.854E-02  0.850E-02  0.854E-02
 10.900  0.116E-01  0.115E-01  0.116E-01  0.115E-01
 11.000  0.138E-01  0.137E-01  0.138E-01  0.137E-01
 11.100  0.114E-01  0.114E-01  0.114E-01  0.114E-01
 11.200  0.753E-02  0.757E-02  0.753E-02  0.757E-02
 11.300  0.854E-02  0.843E-02  0.854E-02  0.843E-02
 11.400  0.144E-01  0.143E-01  0.144E-01  0.143E-01
 11.500  0.145E-01  0.146E-01  0.145E-01  0.146E-01
 11.600  0.851E-02  0.862E-02  0.851E-02  0.862E-02
 11.700  0.573E-02  0.571E-02  0.573E-02  0.571E-02
 11.800  0.756E-02  0.747E-02  0.756E-02  0.747E-02
 11.900  0.102E-01  0.101E-01  0.102E-01  0.101E-01
 12.000  0.894E-02  0.898E-02  0.894E-02  0.898E-02
 12.100  0.715E-02  0.710E-02  0.715E-02  0.710E-02
 12.200  0.816E-02  0.807E-02  0.816E-02  0.807E-02
 12.300  0.921E-02  0.914E-02  0.921E-02  0.914E-02
 12.400  0.943E-02  0.939E-02  0.943E-02  0.939E-02
 12.500  0.788E-02  0.801E-02  0.788E-02  0.801E-02
 12.600  0.386E-02  0.402E-02  0.386E-02  0.402E-02
 12.700  0.920E-03  0.973E-03  0.920E-03  0.973E-03
 12.800  0.253E-03  0.259E-03  0.253E-03  0.259E-03
 12.900  0.246E-03  0.245E-03  0.246E-03  0.245E-03
 13.000  0.179E-03  0.177E-03  0.179E-03  0.177E-03
 13.100  0.782E-04  0.773E-04  0.782E-04  0.773E-04
 13.200  0.271E-04  0.267E-04  0.271E-04  0.267E-04
 13.300  0.527E-05  0.513E-05  0.527E-05  0.513E-05
 13.400  0.392E-06  0.377E-06  0.392E-06  0.377E-06
 13.500  0.101E-07  0.957E-08  0.101E-07  0.957E-08
 13.600  0.886E-10  0.828E-10  0.886E-10  0.828E-10
 13.700  0.264E-12  0.243E-12  0.264E-12  0.243E-12
