# E (eV)  ldosup(E)  ldosdw(E) pdosup(E)  pdosdw(E) 
-20.000  0.325E-01  0.321E-01  0.325E-01  0.321E-01
-19.900  0.493E-01  0.490E-01  0.493E-01  0.490E-01
-19.800  0.632E-01  0.630E-01  0.632E-01  0.630E-01
-19.700  0.680E-01  0.680E-01  0.680E-01  0.680E-01
-19.600  0.673E-01  0.673E-01  0.673E-01  0.673E-01
-19.500  0.657E-01  0.657E-01  0.657E-01  0.657E-01
-19.400  0.641E-01  0.642E-01  0.641E-01  0.642E-01
-19.300  0.627E-01  0.628E-01  0.627E-01  0.628E-01
-19.200  0.614E-01  0.615E-01  0.614E-01  0.615E-01
-19.100  0.603E-01  0.604E-01  0.603E-01  0.604E-01
-19.000  0.592E-01  0.593E-01  0.592E-01  0.593E-01
-18.900  0.581E-01  0.582E-01  0.581E-01  0.582E-01
-18.800  0.574E-01  0.575E-01  0.574E-01  0.575E-01
-18.700  0.562E-01  0.563E-01  0.562E-01  0.563E-01
-18.600  0.558E-01  0.558E-01  0.558E-01  0.558E-01
-18.500  0.546E-01  0.547E-01  0.546E-01  0.547E-01
-18.400  0.542E-01  0.543E-01  0.542E-01  0.543E-01
-18.300  0.535E-01  0.536E-01  0.535E-01  0.536E-01
-18.200  0.525E-01  0.526E-01  0.525E-01  0.526E-01
-18.100  0.528E-01  0.528E-01  0.528E-01  0.528E-01
-18.000  0.509E-01  0.510E-01  0.509E-01  0.510E-01
-17.900  0.518E-01  0.518E-01  0.518E-01  0.518E-01
-17.800  0.503E-01  0.504E-01  0.503E-01  0.504E-01
-17.700  0.500E-01  0.500E-01  0.500E-01  0.500E-01
-17.600  0.504E-01  0.504E-01  0.504E-01  0.504E-01
-17.500  0.486E-01  0.486E-01  0.486E-01  0.486E-01
-17.400  0.493E-01  0.493E-01  0.493E-01  0.493E-01
-17.300  0.488E-01  0.489E-01  0.488E-01  0.489E-01
-17.200  0.476E-01  0.476E-01  0.476E-01  0.476E-01
-17.100  0.484E-01  0.484E-01  0.484E-01  0.484E-01
-17.000  0.476E-01  0.477E-01  0.476E-01  0.477E-01
-16.900  0.469E-01  0.469E-01  0.469E-01  0.469E-01
-16.800  0.474E-01  0.475E-01  0.474E-01  0.475E-01
-16.700  0.468E-01  0.469E-01  0.468E-01  0.469E-01
-16.600  0.464E-01  0.465E-01  0.464E-01  0.465E-01
-16.500  0.465E-01  0.466E-01  0.465E-01  0.466E-01
-16.400  0.464E-01  0.464E-01  0.464E-01  0.464E-01
-16.300  0.462E-01  0.463E-01  0.462E-01  0.463E-01
-16.200  0.459E-01  0.459E-01  0.459E-01  0.459E-01
-16.100  0.461E-01  0.461E-01  0.461E-01  0.461E-01
-16.000  0.463E-01  0.464E-01  0.463E-01  0.464E-01
-15.900  0.459E-01  0.460E-01  0.459E-01  0.460E-01
-15.800  0.457E-01  0.458E-01  0.457E-01  0.458E-01
-15.700  0.469E-01  0.470E-01  0.469E-01  0.470E-01
-15.600  0.467E-01  0.468E-01  0.467E-01  0.468E-01
-15.500  0.462E-01  0.463E-01  0.462E-01  0.463E-01
-15.400  0.477E-01  0.477E-01  0.477E-01  0.477E-01
-15.300  0.492E-01  0.493E-01  0.492E-01  0.493E-01
-15.200  0.486E-01  0.488E-01  0.486E-01  0.488E-01
-15.100  0.505E-01  0.505E-01  0.505E-01  0.505E-01
-15.000  0.553E-01  0.554E-01  0.553E-01  0.554E-01
-14.900  0.599E-01  0.600E-01  0.599E-01  0.600E-01
-14.800  0.631E-01  0.632E-01  0.631E-01  0.632E-01
-14.700  0.617E-01  0.621E-01  0.617E-01  0.621E-01
-14.600  0.527E-01  0.532E-01  0.527E-01  0.532E-01
-14.500  0.406E-01  0.410E-01  0.406E-01  0.410E-01
-14.400  0.341E-01  0.343E-01  0.341E-01  0.343E-01
-14.300  0.329E-01  0.331E-01  0.329E-01  0.331E-01
-14.200  0.267E-01  0.270E-01  0.267E-01  0.270E-01
-14.100  0.214E-01  0.216E-01  0.214E-01  0.216E-01
-14.000  0.222E-01  0.223E-01  0.222E-01  0.223E-01
-13.900  0.191E-01  0.193E-01  0.191E-01  0.193E-01
-13.800  0.170E-01  0.171E-01  0.170E-01  0.171E-01
-13.700  0.221E-01  0.221E-01  0.221E-01  0.221E-01
-13.600  0.253E-01  0.253E-01  0.253E-01  0.253E-01
-13.500  0.248E-01  0.247E-01  0.248E-01  0.247E-01
-13.400  0.254E-01  0.254E-01  0.254E-01  0.254E-01
-13.300  0.254E-01  0.254E-01  0.254E-01  0.254E-01
-13.200  0.250E-01  0.249E-01  0.250E-01  0.249E-01
-13.100  0.263E-01  0.261E-01  0.263E-01  0.261E-01
-13.000  0.310E-01  0.306E-01  0.310E-01  0.306E-01
-12.900  0.376E-01  0.372E-01  0.376E-01  0.372E-01
-12.800  0.398E-01  0.395E-01  0.398E-01  0.395E-01
-12.700  0.374E-01  0.372E-01  0.374E-01  0.372E-01
-12.600  0.342E-01  0.341E-01  0.342E-01  0.341E-01
-12.500  0.323E-01  0.322E-01  0.323E-01  0.322E-01
-12.400  0.311E-01  0.311E-01  0.311E-01  0.311E-01
-12.300  0.295E-01  0.295E-01  0.295E-01  0.295E-01
-12.200  0.290E-01  0.289E-01  0.290E-01  0.289E-01
-12.100  0.276E-01  0.276E-01  0.276E-01  0.276E-01
-12.000  0.268E-01  0.267E-01  0.268E-01  0.267E-01
-11.900  0.264E-01  0.264E-01  0.264E-01  0.264E-01
-11.800  0.249E-01  0.248E-01  0.249E-01  0.248E-01
-11.700  0.247E-01  0.247E-01  0.247E-01  0.247E-01
-11.600  0.239E-01  0.239E-01  0.239E-01  0.239E-01
-11.500  0.227E-01  0.227E-01  0.227E-01  0.227E-01
-11.400  0.227E-01  0.227E-01  0.227E-01  0.227E-01
-11.300  0.217E-01  0.217E-01  0.217E-01  0.217E-01
-11.200  0.208E-01  0.208E-01  0.208E-01  0.208E-01
-11.100  0.209E-01  0.209E-01  0.209E-01  0.209E-01
-11.000  0.201E-01  0.201E-01  0.201E-01  0.201E-01
-10.900  0.197E-01  0.197E-01  0.197E-01  0.197E-01
-10.800  0.197E-01  0.197E-01  0.197E-01  0.197E-01
-10.700  0.197E-01  0.197E-01  0.197E-01  0.197E-01
-10.600  0.188E-01  0.188E-01  0.188E-01  0.188E-01
-10.500  0.191E-01  0.191E-01  0.191E-01  0.191E-01
-10.400  0.191E-01  0.191E-01  0.191E-01  0.191E-01
-10.300  0.181E-01  0.181E-01  0.181E-01  0.181E-01
-10.200  0.183E-01  0.183E-01  0.183E-01  0.183E-01
-10.100  0.188E-01  0.188E-01  0.188E-01  0.188E-01
-10.000  0.173E-01  0.173E-01  0.173E-01  0.173E-01
 -9.900  0.171E-01  0.171E-01  0.171E-01  0.171E-01
 -9.800  0.189E-01  0.188E-01  0.189E-01  0.188E-01
 -9.700  0.167E-01  0.168E-01  0.167E-01  0.168E-01
 -9.600  0.161E-01  0.160E-01  0.161E-01  0.160E-01
 -9.500  0.175E-01  0.175E-01  0.175E-01  0.175E-01
 -9.400  0.170E-01  0.170E-01  0.170E-01  0.170E-01
 -9.300  0.162E-01  0.162E-01  0.162E-01  0.162E-01
 -9.200  0.149E-01  0.149E-01  0.149E-01  0.149E-01
 -9.100  0.166E-01  0.165E-01  0.166E-01  0.165E-01
 -9.000  0.168E-01  0.169E-01  0.168E-01  0.169E-01
 -8.900  0.136E-01  0.136E-01  0.136E-01  0.136E-01
 -8.800  0.151E-01  0.151E-01  0.151E-01  0.151E-01
 -8.700  0.162E-01  0.162E-01  0.162E-01  0.162E-01
 -8.600  0.141E-01  0.141E-01  0.141E-01  0.141E-01
 -8.500  0.140E-01  0.140E-01  0.140E-01  0.140E-01
 -8.400  0.141E-01  0.140E-01  0.141E-01  0.140E-01
 -8.300  0.145E-01  0.145E-01  0.145E-01  0.145E-01
 -8.200  0.138E-01  0.138E-01  0.138E-01  0.138E-01
 -8.100  0.121E-01  0.121E-01  0.121E-01  0.121E-01
 -8.000  0.136E-01  0.136E-01  0.136E-01  0.136E-01
 -7.900  0.135E-01  0.135E-01  0.135E-01  0.135E-01
 -7.800  0.114E-01  0.114E-01  0.114E-01  0.114E-01
 -7.700  0.119E-01  0.119E-01  0.119E-01  0.119E-01
 -7.600  0.121E-01  0.121E-01  0.121E-01  0.121E-01
 -7.500  0.116E-01  0.116E-01  0.116E-01  0.116E-01
 -7.400  0.108E-01  0.108E-01  0.108E-01  0.108E-01
 -7.300  0.100E-01  0.100E-01  0.100E-01  0.100E-01
 -7.200  0.109E-01  0.109E-01  0.109E-01  0.109E-01
 -7.100  0.101E-01  0.101E-01  0.101E-01  0.101E-01
 -7.000  0.838E-02  0.839E-02  0.838E-02  0.839E-02
 -6.900  0.870E-02  0.869E-02  0.870E-02  0.869E-02
 -6.800  0.835E-02  0.836E-02  0.835E-02  0.836E-02
 -6.700  0.731E-02  0.732E-02  0.731E-02  0.732E-02
 -6.600  0.669E-02  0.670E-02  0.669E-02  0.670E-02
 -6.500  0.635E-02  0.634E-02  0.635E-02  0.634E-02
 -6.400  0.661E-02  0.660E-02  0.661E-02  0.660E-02
 -6.300  0.586E-02  0.587E-02  0.586E-02  0.587E-02
 -6.200  0.506E-02  0.506E-02  0.506E-02  0.506E-02
 -6.100  0.523E-02  0.523E-02  0.523E-02  0.523E-02
 -6.000  0.512E-02  0.513E-02  0.512E-02  0.513E-02
 -5.900  0.449E-02  0.450E-02  0.449E-02  0.450E-02
 -5.800  0.384E-02  0.384E-02  0.384E-02  0.384E-02
 -5.700  0.413E-02  0.412E-02  0.413E-02  0.412E-02
 -5.600  0.402E-02  0.403E-02  0.402E-02  0.403E-02
 -5.500  0.308E-02  0.308E-02  0.308E-02  0.308E-02
 -5.400  0.309E-02  0.309E-02  0.309E-02  0.309E-02
 -5.300  0.322E-02  0.322E-02  0.322E-02  0.322E-02
 -5.200  0.268E-02  0.269E-02  0.268E-02  0.269E-02
 -5.100  0.229E-02  0.229E-02  0.229E-02  0.229E-02
 -5.000  0.238E-02  0.238E-02  0.238E-02  0.238E-02
 -4.900  0.217E-02  0.217E-02  0.217E-02  0.217E-02
 -4.800  0.176E-02  0.177E-02  0.176E-02  0.177E-02
 -4.700  0.166E-02  0.166E-02  0.166E-02  0.166E-02
 -4.600  0.161E-02  0.161E-02  0.161E-02  0.161E-02
 -4.500  0.125E-02  0.126E-02  0.125E-02  0.126E-02
 -4.400  0.114E-02  0.114E-02  0.114E-02  0.114E-02
 -4.300  0.104E-02  0.105E-02  0.104E-02  0.105E-02
 -4.200  0.798E-03  0.800E-03  0.798E-03  0.800E-03
 -4.100  0.699E-03  0.699E-03  0.699E-03  0.699E-03
 -4.000  0.554E-03  0.556E-03  0.554E-03  0.556E-03
 -3.900  0.409E-03  0.410E-03  0.409E-03  0.410E-03
 -3.800  0.292E-03  0.293E-03  0.292E-03  0.293E-03
 -3.700  0.177E-03  0.178E-03  0.177E-03  0.178E-03
 -3.600  0.894E-04  0.902E-04  0.894E-04  0.902E-04
 -3.500  0.429E-04  0.431E-04  0.429E-04  0.431E-04
 -3.400  0.310E-04  0.310E-04  0.310E-04  0.310E-04
 -3.300  0.298E-04  0.299E-04  0.298E-04  0.299E-04
 -3.200  0.309E-04  0.309E-04  0.309E-04  0.309E-04
 -3.100  0.301E-04  0.302E-04  0.301E-04  0.302E-04
 -3.000  0.263E-04  0.265E-04  0.263E-04  0.265E-04
 -2.900  0.257E-04  0.256E-04  0.257E-04  0.256E-04
 -2.800  0.254E-04  0.254E-04  0.254E-04  0.254E-04
 -2.700  0.233E-04  0.235E-04  0.233E-04  0.235E-04
 -2.600  0.206E-04  0.208E-04  0.206E-04  0.208E-04
 -2.500  0.182E-04  0.184E-04  0.182E-04  0.184E-04
 -2.400  0.129E-04  0.133E-04  0.129E-04  0.133E-04
 -2.300  0.953E-05  0.963E-05  0.953E-05  0.963E-05
 -2.200  0.980E-05  0.982E-05  0.980E-05  0.982E-05
 -2.100  0.790E-05  0.814E-05  0.790E-05  0.814E-05
 -2.000  0.537E-05  0.549E-05  0.537E-05  0.549E-05
 -1.900  0.519E-05  0.519E-05  0.519E-05  0.519E-05
 -1.800  0.487E-05  0.498E-05  0.487E-05  0.498E-05
 -1.700  0.328E-05  0.339E-05  0.328E-05  0.339E-05
 -1.600  0.270E-05  0.272E-05  0.270E-05  0.272E-05
 -1.500  0.261E-05  0.266E-05  0.261E-05  0.266E-05
 -1.400  0.194E-05  0.201E-05  0.194E-05  0.201E-05
 -1.300  0.136E-05  0.139E-05  0.136E-05  0.139E-05
 -1.200  0.123E-05  0.126E-05  0.123E-05  0.126E-05
 -1.100  0.934E-06  0.977E-06  0.934E-06  0.977E-06
 -1.000  0.574E-06  0.590E-06  0.574E-06  0.590E-06
 -0.900  0.414E-06  0.432E-06  0.414E-06  0.432E-06
 -0.800  0.221E-06  0.238E-06  0.221E-06  0.238E-06
 -0.700  0.119E-06  0.128E-06  0.119E-06  0.128E-06
 -0.600  0.584E-07  0.706E-07  0.584E-07  0.706E-07
 -0.500  0.176E-07  0.210E-07  0.176E-07  0.210E-07
 -0.400  0.230E-07  0.191E-07  0.230E-07  0.191E-07
 -0.300  0.333E-07  0.313E-07  0.333E-07  0.313E-07
 -0.200  0.395E-07  0.399E-07  0.395E-07  0.399E-07
 -0.100  0.762E-07  0.736E-07  0.762E-07  0.736E-07
  0.000  0.121E-06  0.117E-06  0.121E-06  0.117E-06
  0.100  0.129E-06  0.124E-06  0.129E-06  0.124E-06
  0.200  0.103E-06  0.968E-07  0.103E-06  0.968E-07
  0.300  0.962E-07  0.910E-07  0.962E-07  0.910E-07
  0.400  0.837E-07  0.805E-07  0.837E-07  0.805E-07
  0.500  0.528E-07  0.509E-07  0.528E-07  0.509E-07
  0.600  0.468E-07  0.449E-07  0.468E-07  0.449E-07
  0.700  0.570E-07  0.554E-07  0.570E-07  0.554E-07
  0.800  0.117E-06  0.114E-06  0.117E-06  0.114E-06
  0.900  0.345E-06  0.344E-06  0.345E-06  0.344E-06
  1.000  0.706E-06  0.711E-06  0.706E-06  0.711E-06
  1.100  0.105E-05  0.105E-05  0.105E-05  0.105E-05
  1.200  0.152E-05  0.149E-05  0.152E-05  0.149E-05
  1.300  0.236E-05  0.231E-05  0.236E-05  0.231E-05
  1.400  0.333E-05  0.333E-05  0.333E-05  0.333E-05
  1.500  0.367E-05  0.374E-05  0.367E-05  0.374E-05
  1.600  0.357E-05  0.365E-05  0.357E-05  0.365E-05
  1.700  0.347E-05  0.355E-05  0.347E-05  0.355E-05
  1.800  0.338E-05  0.344E-05  0.338E-05  0.344E-05
  1.900  0.366E-05  0.369E-05  0.366E-05  0.369E-05
  2.000  0.403E-05  0.408E-05  0.403E-05  0.408E-05
  2.100  0.423E-05  0.428E-05  0.423E-05  0.428E-05
  2.200  0.421E-05  0.427E-05  0.421E-05  0.427E-05
  2.300  0.458E-05  0.459E-05  0.458E-05  0.459E-05
  2.400  0.530E-05  0.533E-05  0.530E-05  0.533E-05
  2.500  0.549E-05  0.556E-05  0.549E-05  0.556E-05
  2.600  0.543E-05  0.549E-05  0.543E-05  0.549E-05
  2.700  0.691E-05  0.689E-05  0.691E-05  0.689E-05
  2.800  0.188E-04  0.187E-04  0.188E-04  0.187E-04
  2.900  0.645E-04  0.641E-04  0.645E-04  0.641E-04
  3.000  0.124E-03  0.124E-03  0.124E-03  0.124E-03
  3.100  0.135E-03  0.136E-03  0.135E-03  0.136E-03
  3.200  0.111E-03  0.112E-03  0.111E-03  0.112E-03
  3.300  0.917E-04  0.922E-04  0.917E-04  0.922E-04
  3.400  0.765E-04  0.770E-04  0.765E-04  0.770E-04
  3.500  0.599E-04  0.603E-04  0.599E-04  0.603E-04
  3.600  0.439E-04  0.443E-04  0.439E-04  0.443E-04
  3.700  0.330E-04  0.332E-04  0.330E-04  0.332E-04
  3.800  0.264E-04  0.267E-04  0.264E-04  0.267E-04
  3.900  0.232E-04  0.236E-04  0.232E-04  0.236E-04
  4.000  0.352E-04  0.351E-04  0.352E-04  0.351E-04
  4.100  0.521E-04  0.523E-04  0.521E-04  0.523E-04
  4.200  0.527E-04  0.530E-04  0.527E-04  0.530E-04
  4.300  0.466E-04  0.468E-04  0.466E-04  0.468E-04
  4.400  0.404E-04  0.408E-04  0.404E-04  0.408E-04
  4.500  0.360E-04  0.360E-04  0.360E-04  0.360E-04
  4.600  0.370E-04  0.369E-04  0.370E-04  0.369E-04
  4.700  0.350E-04  0.354E-04  0.350E-04  0.354E-04
  4.800  0.318E-04  0.318E-04  0.318E-04  0.318E-04
  4.900  0.348E-04  0.347E-04  0.348E-04  0.347E-04
  5.000  0.372E-04  0.373E-04  0.372E-04  0.373E-04
  5.100  0.430E-04  0.429E-04  0.430E-04  0.429E-04
  5.200  0.546E-04  0.548E-04  0.546E-04  0.548E-04
  5.300  0.594E-04  0.598E-04  0.594E-04  0.598E-04
  5.400  0.633E-04  0.631E-04  0.633E-04  0.631E-04
  5.500  0.637E-04  0.639E-04  0.637E-04  0.639E-04
  5.600  0.655E-04  0.656E-04  0.655E-04  0.656E-04
  5.700  0.984E-04  0.981E-04  0.984E-04  0.981E-04
  5.800  0.158E-03  0.158E-03  0.158E-03  0.158E-03
  5.900  0.211E-03  0.210E-03  0.211E-03  0.210E-03
  6.000  0.249E-03  0.249E-03  0.249E-03  0.249E-03
  6.100  0.269E-03  0.270E-03  0.269E-03  0.270E-03
  6.200  0.284E-03  0.285E-03  0.284E-03  0.285E-03
  6.300  0.316E-03  0.316E-03  0.316E-03  0.316E-03
  6.400  0.377E-03  0.376E-03  0.377E-03  0.376E-03
  6.500  0.750E-03  0.724E-03  0.750E-03  0.724E-03
  6.600  0.391E-02  0.372E-02  0.391E-02  0.372E-02
  6.700  0.160E-01  0.155E-01  0.160E-01  0.155E-01
  6.800  0.343E-01  0.338E-01  0.343E-01  0.338E-01
  6.900  0.496E-01  0.492E-01  0.496E-01  0.492E-01
  7.000  0.642E-01  0.638E-01  0.642E-01  0.638E-01
  7.100  0.782E-01  0.779E-01  0.782E-01  0.779E-01
  7.200  0.831E-01  0.832E-01  0.831E-01  0.832E-01
  7.300  0.784E-01  0.786E-01  0.784E-01  0.786E-01
  7.400  0.832E-01  0.830E-01  0.832E-01  0.830E-01
  7.500  0.857E-01  0.860E-01  0.857E-01  0.860E-01
  7.600  0.742E-01  0.745E-01  0.742E-01  0.745E-01
  7.700  0.767E-01  0.765E-01  0.767E-01  0.765E-01
  7.800  0.858E-01  0.859E-01  0.858E-01  0.859E-01
  7.900  0.755E-01  0.761E-01  0.755E-01  0.761E-01
  8.000  0.604E-01  0.607E-01  0.604E-01  0.607E-01
  8.100  0.582E-01  0.582E-01  0.582E-01  0.582E-01
  8.200  0.546E-01  0.548E-01  0.546E-01  0.548E-01
  8.300  0.449E-01  0.451E-01  0.449E-01  0.451E-01
  8.400  0.380E-01  0.380E-01  0.380E-01  0.380E-01
  8.500  0.382E-01  0.382E-01  0.382E-01  0.382E-01
  8.600  0.368E-01  0.368E-01  0.368E-01  0.368E-01
  8.700  0.368E-01  0.368E-01  0.368E-01  0.368E-01
  8.800  0.335E-01  0.337E-01  0.335E-01  0.337E-01
  8.900  0.255E-01  0.256E-01  0.255E-01  0.256E-01
  9.000  0.266E-01  0.265E-01  0.266E-01  0.265E-01
  9.100  0.311E-01  0.311E-01  0.311E-01  0.311E-01
  9.200  0.326E-01  0.327E-01  0.326E-01  0.327E-01
  9.300  0.232E-01  0.235E-01  0.232E-01  0.235E-01
  9.400  0.173E-01  0.173E-01  0.173E-01  0.173E-01
  9.500  0.226E-01  0.225E-01  0.226E-01  0.225E-01
  9.600  0.282E-01  0.282E-01  0.282E-01  0.282E-01
  9.700  0.257E-01  0.259E-01  0.257E-01  0.259E-01
  9.800  0.172E-01  0.174E-01  0.172E-01  0.174E-01
  9.900  0.150E-01  0.150E-01  0.150E-01  0.150E-01
 10.000  0.184E-01  0.183E-01  0.184E-01  0.183E-01
 10.100  0.232E-01  0.232E-01  0.232E-01  0.232E-01
 10.200  0.200E-01  0.202E-01  0.200E-01  0.202E-01
 10.300  0.132E-01  0.133E-01  0.132E-01  0.133E-01
 10.400  0.139E-01  0.138E-01  0.139E-01  0.138E-01
 10.500  0.160E-01  0.160E-01  0.160E-01  0.160E-01
 10.600  0.143E-01  0.144E-01  0.143E-01  0.144E-01
 10.700  0.101E-01  0.103E-01  0.101E-01  0.103E-01
 10.800  0.935E-02  0.935E-02  0.935E-02  0.935E-02
 10.900  0.130E-01  0.129E-01  0.130E-01  0.129E-01
 11.000  0.163E-01  0.162E-01  0.163E-01  0.162E-01
 11.100  0.154E-01  0.154E-01  0.154E-01  0.154E-01
 11.200  0.109E-01  0.110E-01  0.109E-01  0.110E-01
 11.300  0.114E-01  0.113E-01  0.114E-01  0.113E-01
 11.400  0.172E-01  0.171E-01  0.172E-01  0.171E-01
 11.500  0.169E-01  0.171E-01  0.169E-01  0.171E-01
 11.600  0.118E-01  0.120E-01  0.118E-01  0.120E-01
 11.700  0.102E-01  0.103E-01  0.102E-01  0.103E-01
 11.800  0.112E-01  0.112E-01  0.112E-01  0.112E-01
 11.900  0.155E-01  0.155E-01  0.155E-01  0.155E-01
 12.000  0.167E-01  0.168E-01  0.167E-01  0.168E-01
 12.100  0.131E-01  0.131E-01  0.131E-01  0.131E-01
 12.200  0.997E-02  0.992E-02  0.997E-02  0.992E-02
 12.300  0.701E-02  0.702E-02  0.701E-02  0.702E-02
 12.400  0.452E-02  0.455E-02  0.452E-02  0.455E-02
 12.500  0.389E-02  0.391E-02  0.389E-02  0.391E-02
 12.600  0.303E-02  0.305E-02  0.303E-02  0.305E-02
 12.700  0.191E-02  0.192E-02  0.191E-02  0.192E-02
 12.800  0.247E-02  0.248E-02  0.247E-02  0.248E-02
 12.900  0.268E-02  0.269E-02  0.268E-02  0.269E-02
 13.000  0.245E-02  0.246E-02  0.245E-02  0.246E-02
 13.100  0.264E-02  0.264E-02  0.264E-02  0.264E-02
 13.200  0.184E-02  0.182E-02  0.184E-02  0.182E-02
 13.300  0.609E-03  0.596E-03  0.609E-03  0.596E-03
 13.400  0.957E-04  0.925E-04  0.957E-04  0.925E-04
 13.500  0.659E-05  0.627E-05  0.659E-05  0.627E-05
 13.600  0.174E-06  0.163E-06  0.174E-06  0.163E-06
 13.700  0.164E-08  0.150E-08  0.164E-08  0.150E-08
