# E (eV)  ldosup(E)  ldosdw(E) pdosup(E)  pdosdw(E)  pdosup(E)  pdosdw(E)  pdosup(E)  pdosdw(E) 
-20.000  0.136E-02  0.133E-02  0.101E-03  0.100E-03  0.627E-03  0.614E-03  0.627E-03  0.614E-03
-19.900  0.279E-02  0.275E-02  0.146E-03  0.145E-03  0.132E-02  0.130E-02  0.132E-02  0.130E-02
-19.800  0.465E-02  0.460E-02  0.175E-03  0.175E-03  0.224E-02  0.221E-02  0.224E-02  0.221E-02
-19.700  0.666E-02  0.662E-02  0.176E-03  0.176E-03  0.324E-02  0.322E-02  0.324E-02  0.322E-02
-19.600  0.858E-02  0.854E-02  0.161E-03  0.162E-03  0.421E-02  0.419E-02  0.421E-02  0.419E-02
-19.500  0.103E-01  0.103E-01  0.146E-03  0.146E-03  0.509E-02  0.507E-02  0.509E-02  0.507E-02
-19.400  0.119E-01  0.119E-01  0.132E-03  0.132E-03  0.590E-02  0.588E-02  0.590E-02  0.588E-02
-19.300  0.134E-01  0.134E-01  0.119E-03  0.120E-03  0.664E-02  0.663E-02  0.664E-02  0.663E-02
-19.200  0.148E-01  0.147E-01  0.109E-03  0.109E-03  0.732E-02  0.731E-02  0.732E-02  0.731E-02
-19.100  0.160E-01  0.160E-01  0.989E-04  0.990E-04  0.795E-02  0.794E-02  0.795E-02  0.794E-02
-19.000  0.172E-01  0.172E-01  0.904E-04  0.905E-04  0.856E-02  0.855E-02  0.856E-02  0.855E-02
-18.900  0.182E-01  0.182E-01  0.826E-04  0.827E-04  0.908E-02  0.908E-02  0.908E-02  0.908E-02
-18.800  0.194E-01  0.194E-01  0.760E-04  0.760E-04  0.965E-02  0.964E-02  0.965E-02  0.964E-02
-18.700  0.202E-01  0.202E-01  0.695E-04  0.696E-04  0.101E-01  0.101E-01  0.101E-01  0.101E-01
-18.600  0.213E-01  0.213E-01  0.643E-04  0.643E-04  0.106E-01  0.106E-01  0.106E-01  0.106E-01
-18.500  0.220E-01  0.220E-01  0.590E-04  0.591E-04  0.109E-01  0.110E-01  0.110E-01  0.110E-01
-18.400  0.230E-01  0.229E-01  0.546E-04  0.546E-04  0.115E-01  0.114E-01  0.115E-01  0.114E-01
-18.300  0.237E-01  0.237E-01  0.507E-04  0.508E-04  0.118E-01  0.118E-01  0.118E-01  0.118E-01
-18.200  0.243E-01  0.243E-01  0.463E-04  0.463E-04  0.121E-01  0.121E-01  0.121E-01  0.121E-01
-18.100  0.254E-01  0.254E-01  0.440E-04  0.440E-04  0.127E-01  0.127E-01  0.127E-01  0.127E-01
-18.000  0.255E-01  0.255E-01  0.397E-04  0.397E-04  0.127E-01  0.127E-01  0.127E-01  0.127E-01
-17.900  0.269E-01  0.269E-01  0.379E-04  0.378E-04  0.134E-01  0.134E-01  0.134E-01  0.134E-01
-17.800  0.269E-01  0.270E-01  0.349E-04  0.349E-04  0.135E-01  0.135E-01  0.135E-01  0.135E-01
-17.700  0.276E-01  0.276E-01  0.321E-04  0.321E-04  0.138E-01  0.138E-01  0.138E-01  0.138E-01
-17.600  0.287E-01  0.288E-01  0.309E-04  0.309E-04  0.143E-01  0.144E-01  0.143E-01  0.144E-01
-17.500  0.285E-01  0.285E-01  0.279E-04  0.280E-04  0.142E-01  0.142E-01  0.142E-01  0.142E-01
-17.400  0.297E-01  0.297E-01  0.264E-04  0.264E-04  0.148E-01  0.148E-01  0.148E-01  0.148E-01
-17.300  0.302E-01  0.302E-01  0.253E-04  0.253E-04  0.151E-01  0.151E-01  0.151E-01  0.151E-01
-17.200  0.302E-01  0.302E-01  0.228E-04  0.228E-04  0.151E-01  0.151E-01  0.151E-01  0.151E-01
-17.100  0.314E-01  0.314E-01  0.218E-04  0.218E-04  0.157E-01  0.157E-01  0.157E-01  0.157E-01
-17.000  0.317E-01  0.317E-01  0.208E-04  0.208E-04  0.158E-01  0.158E-01  0.158E-01  0.158E-01
-16.900  0.318E-01  0.318E-01  0.188E-04  0.188E-04  0.159E-01  0.159E-01  0.159E-01  0.159E-01
-16.800  0.328E-01  0.328E-01  0.181E-04  0.180E-04  0.164E-01  0.164E-01  0.164E-01  0.164E-01
-16.700  0.331E-01  0.332E-01  0.173E-04  0.173E-04  0.165E-01  0.166E-01  0.166E-01  0.166E-01
-16.600  0.333E-01  0.334E-01  0.157E-04  0.157E-04  0.167E-01  0.167E-01  0.167E-01  0.167E-01
-16.500  0.340E-01  0.340E-01  0.149E-04  0.148E-04  0.170E-01  0.170E-01  0.170E-01  0.170E-01
-16.400  0.346E-01  0.346E-01  0.145E-04  0.145E-04  0.173E-01  0.173E-01  0.173E-01  0.173E-01
-16.300  0.349E-01  0.349E-01  0.132E-04  0.132E-04  0.174E-01  0.174E-01  0.174E-01  0.175E-01
-16.200  0.351E-01  0.351E-01  0.122E-04  0.122E-04  0.175E-01  0.176E-01  0.175E-01  0.176E-01
-16.100  0.359E-01  0.359E-01  0.121E-04  0.121E-04  0.179E-01  0.180E-01  0.179E-01  0.180E-01
-16.000  0.364E-01  0.365E-01  0.112E-04  0.112E-04  0.182E-01  0.182E-01  0.182E-01  0.182E-01
-15.900  0.364E-01  0.365E-01  0.101E-04  0.101E-04  0.182E-01  0.182E-01  0.182E-01  0.182E-01
-15.800  0.368E-01  0.368E-01  0.984E-05  0.981E-05  0.184E-01  0.184E-01  0.184E-01  0.184E-01
-15.700  0.381E-01  0.382E-01  0.949E-05  0.948E-05  0.191E-01  0.191E-01  0.191E-01  0.191E-01
-15.600  0.380E-01  0.381E-01  0.839E-05  0.839E-05  0.190E-01  0.191E-01  0.190E-01  0.191E-01
-15.500  0.379E-01  0.379E-01  0.785E-05  0.783E-05  0.189E-01  0.190E-01  0.189E-01  0.190E-01
-15.400  0.394E-01  0.394E-01  0.776E-05  0.775E-05  0.197E-01  0.197E-01  0.197E-01  0.197E-01
-15.300  0.405E-01  0.406E-01  0.703E-05  0.703E-05  0.202E-01  0.203E-01  0.202E-01  0.203E-01
-15.200  0.396E-01  0.398E-01  0.611E-05  0.610E-05  0.198E-01  0.199E-01  0.198E-01  0.199E-01
-15.100  0.409E-01  0.410E-01  0.593E-05  0.592E-05  0.205E-01  0.205E-01  0.205E-01  0.205E-01
-15.000  0.442E-01  0.443E-01  0.559E-05  0.559E-05  0.221E-01  0.221E-01  0.221E-01  0.221E-01
-14.900  0.459E-01  0.461E-01  0.459E-05  0.460E-05  0.230E-01  0.230E-01  0.230E-01  0.230E-01
-14.800  0.464E-01  0.466E-01  0.383E-05  0.383E-05  0.232E-01  0.233E-01  0.232E-01  0.233E-01
-14.700  0.455E-01  0.458E-01  0.351E-05  0.351E-05  0.227E-01  0.229E-01  0.227E-01  0.229E-01
-14.600  0.400E-01  0.404E-01  0.274E-05  0.276E-05  0.200E-01  0.202E-01  0.200E-01  0.202E-01
-14.500  0.315E-01  0.319E-01  0.186E-05  0.187E-05  0.158E-01  0.159E-01  0.158E-01  0.159E-01
-14.400  0.277E-01  0.279E-01  0.174E-05  0.173E-05  0.139E-01  0.139E-01  0.139E-01  0.139E-01
-14.300  0.277E-01  0.279E-01  0.163E-05  0.163E-05  0.139E-01  0.140E-01  0.139E-01  0.140E-01
-14.200  0.226E-01  0.229E-01  0.992E-06  0.100E-05  0.113E-01  0.114E-01  0.113E-01  0.114E-01
-14.100  0.186E-01  0.188E-01  0.794E-06  0.790E-06  0.931E-02  0.937E-02  0.931E-02  0.938E-02
-14.000  0.200E-01  0.201E-01  0.865E-06  0.864E-06  0.997E-02  0.100E-01  0.998E-02  0.100E-01
-13.900  0.184E-01  0.185E-01  0.757E-06  0.756E-06  0.917E-02  0.927E-02  0.919E-02  0.928E-02
-13.800  0.220E-01  0.219E-01  0.160E-05  0.157E-05  0.110E-01  0.109E-01  0.110E-01  0.110E-01
-13.700  0.382E-01  0.379E-01  0.364E-05  0.359E-05  0.191E-01  0.189E-01  0.191E-01  0.190E-01
-13.600  0.508E-01  0.507E-01  0.508E-05  0.504E-05  0.254E-01  0.253E-01  0.254E-01  0.253E-01
-13.500  0.540E-01  0.539E-01  0.537E-05  0.534E-05  0.270E-01  0.269E-01  0.270E-01  0.269E-01
-13.400  0.558E-01  0.557E-01  0.534E-05  0.531E-05  0.279E-01  0.278E-01  0.279E-01  0.278E-01
-13.300  0.563E-01  0.562E-01  0.517E-05  0.514E-05  0.281E-01  0.281E-01  0.281E-01  0.281E-01
-13.200  0.568E-01  0.566E-01  0.508E-05  0.505E-05  0.284E-01  0.283E-01  0.284E-01  0.283E-01
-13.100  0.589E-01  0.586E-01  0.492E-05  0.490E-05  0.294E-01  0.293E-01  0.294E-01  0.293E-01
-13.000  0.650E-01  0.645E-01  0.487E-05  0.484E-05  0.325E-01  0.322E-01  0.325E-01  0.323E-01
-12.900  0.732E-01  0.726E-01  0.473E-05  0.471E-05  0.366E-01  0.363E-01  0.366E-01  0.363E-01
-12.800  0.743E-01  0.739E-01  0.420E-05  0.419E-05  0.371E-01  0.370E-01  0.371E-01  0.370E-01
-12.700  0.695E-01  0.693E-01  0.353E-05  0.352E-05  0.347E-01  0.346E-01  0.347E-01  0.346E-01
-12.600  0.640E-01  0.638E-01  0.291E-05  0.290E-05  0.320E-01  0.319E-01  0.320E-01  0.319E-01
-12.500  0.609E-01  0.607E-01  0.249E-05  0.248E-05  0.304E-01  0.304E-01  0.304E-01  0.303E-01
-12.400  0.589E-01  0.588E-01  0.216E-05  0.215E-05  0.295E-01  0.294E-01  0.295E-01  0.294E-01
-12.300  0.566E-01  0.565E-01  0.188E-05  0.187E-05  0.283E-01  0.283E-01  0.283E-01  0.283E-01
-12.200  0.560E-01  0.558E-01  0.165E-05  0.164E-05  0.280E-01  0.279E-01  0.280E-01  0.279E-01
-12.100  0.540E-01  0.539E-01  0.143E-05  0.142E-05  0.270E-01  0.270E-01  0.270E-01  0.270E-01
-12.000  0.531E-01  0.529E-01  0.126E-05  0.125E-05  0.265E-01  0.265E-01  0.265E-01  0.265E-01
-11.900  0.526E-01  0.525E-01  0.110E-05  0.109E-05  0.263E-01  0.263E-01  0.263E-01  0.263E-01
-11.800  0.505E-01  0.504E-01  0.947E-06  0.940E-06  0.252E-01  0.252E-01  0.252E-01  0.252E-01
-11.700  0.507E-01  0.506E-01  0.834E-06  0.827E-06  0.254E-01  0.253E-01  0.254E-01  0.253E-01
-11.600  0.495E-01  0.495E-01  0.715E-06  0.709E-06  0.248E-01  0.248E-01  0.248E-01  0.248E-01
-11.500  0.480E-01  0.480E-01  0.617E-06  0.611E-06  0.240E-01  0.240E-01  0.240E-01  0.240E-01
-11.400  0.486E-01  0.485E-01  0.541E-06  0.536E-06  0.243E-01  0.243E-01  0.243E-01  0.243E-01
-11.300  0.471E-01  0.471E-01  0.470E-06  0.466E-06  0.236E-01  0.236E-01  0.236E-01  0.236E-01
-11.200  0.474E-01  0.473E-01  0.555E-06  0.547E-06  0.237E-01  0.237E-01  0.237E-01  0.237E-01
-11.100  0.534E-01  0.533E-01  0.116E-05  0.115E-05  0.267E-01  0.267E-01  0.267E-01  0.267E-01
-11.000  0.613E-01  0.612E-01  0.214E-05  0.212E-05  0.306E-01  0.306E-01  0.306E-01  0.306E-01
-10.900  0.671E-01  0.670E-01  0.273E-05  0.271E-05  0.336E-01  0.335E-01  0.336E-01  0.335E-01
-10.800  0.697E-01  0.697E-01  0.286E-05  0.284E-05  0.349E-01  0.348E-01  0.349E-01  0.348E-01
-10.700  0.695E-01  0.695E-01  0.263E-05  0.261E-05  0.348E-01  0.347E-01  0.348E-01  0.347E-01
-10.600  0.700E-01  0.700E-01  0.267E-05  0.264E-05  0.350E-01  0.350E-01  0.350E-01  0.350E-01
-10.500  0.735E-01  0.734E-01  0.277E-05  0.275E-05  0.367E-01  0.367E-01  0.367E-01  0.367E-01
-10.400  0.707E-01  0.707E-01  0.232E-05  0.231E-05  0.354E-01  0.353E-01  0.354E-01  0.353E-01
-10.300  0.710E-01  0.709E-01  0.234E-05  0.232E-05  0.355E-01  0.354E-01  0.355E-01  0.354E-01
-10.200  0.769E-01  0.767E-01  0.264E-05  0.262E-05  0.384E-01  0.384E-01  0.384E-01  0.384E-01
-10.100  0.755E-01  0.755E-01  0.225E-05  0.224E-05  0.378E-01  0.378E-01  0.378E-01  0.378E-01
-10.000  0.709E-01  0.709E-01  0.199E-05  0.198E-05  0.354E-01  0.354E-01  0.354E-01  0.354E-01
 -9.900  0.760E-01  0.758E-01  0.223E-05  0.221E-05  0.380E-01  0.379E-01  0.380E-01  0.379E-01
 -9.800  0.837E-01  0.836E-01  0.231E-05  0.229E-05  0.418E-01  0.418E-01  0.419E-01  0.418E-01
 -9.700  0.752E-01  0.754E-01  0.193E-05  0.192E-05  0.376E-01  0.377E-01  0.376E-01  0.377E-01
 -9.600  0.731E-01  0.730E-01  0.175E-05  0.174E-05  0.366E-01  0.365E-01  0.366E-01  0.365E-01
 -9.500  0.846E-01  0.844E-01  0.207E-05  0.205E-05  0.423E-01  0.422E-01  0.423E-01  0.422E-01
 -9.400  0.857E-01  0.857E-01  0.204E-05  0.203E-05  0.428E-01  0.428E-01  0.428E-01  0.428E-01
 -9.300  0.783E-01  0.783E-01  0.167E-05  0.167E-05  0.391E-01  0.392E-01  0.391E-01  0.392E-01
 -9.200  0.776E-01  0.775E-01  0.163E-05  0.162E-05  0.388E-01  0.387E-01  0.388E-01  0.387E-01
 -9.100  0.915E-01  0.913E-01  0.205E-05  0.201E-05  0.457E-01  0.456E-01  0.458E-01  0.456E-01
 -9.000  0.908E-01  0.909E-01  0.109E-04  0.914E-05  0.454E-01  0.455E-01  0.454E-01  0.454E-01
 -8.900  0.780E-01  0.780E-01  0.255E-03  0.217E-03  0.389E-01  0.389E-01  0.389E-01  0.389E-01
 -8.800  0.920E-01  0.914E-01  0.266E-02  0.238E-02  0.446E-01  0.445E-01  0.447E-01  0.445E-01
 -8.700  0.109E+00  0.109E+00  0.114E-01  0.107E-01  0.489E-01  0.489E-01  0.489E-01  0.489E-01
 -8.600  0.113E+00  0.112E+00  0.231E-01  0.225E-01  0.449E-01  0.449E-01  0.449E-01  0.449E-01
 -8.500  0.119E+00  0.119E+00  0.291E-01  0.289E-01  0.450E-01  0.450E-01  0.450E-01  0.450E-01
 -8.400  0.127E+00  0.126E+00  0.303E-01  0.302E-01  0.481E-01  0.481E-01  0.482E-01  0.481E-01
 -8.300  0.133E+00  0.133E+00  0.305E-01  0.304E-01  0.514E-01  0.514E-01  0.514E-01  0.514E-01
 -8.200  0.130E+00  0.130E+00  0.306E-01  0.305E-01  0.498E-01  0.498E-01  0.498E-01  0.498E-01
 -8.100  0.127E+00  0.127E+00  0.307E-01  0.307E-01  0.481E-01  0.480E-01  0.481E-01  0.481E-01
 -8.000  0.141E+00  0.141E+00  0.308E-01  0.308E-01  0.552E-01  0.550E-01  0.552E-01  0.551E-01
 -7.900  0.143E+00  0.143E+00  0.310E-01  0.309E-01  0.559E-01  0.560E-01  0.559E-01  0.560E-01
 -7.800  0.138E+00  0.137E+00  0.311E-01  0.310E-01  0.532E-01  0.532E-01  0.532E-01  0.532E-01
 -7.700  0.148E+00  0.148E+00  0.318E-01  0.317E-01  0.583E-01  0.582E-01  0.583E-01  0.582E-01
 -7.600  0.158E+00  0.157E+00  0.360E-01  0.354E-01  0.611E-01  0.610E-01  0.611E-01  0.610E-01
 -7.500  0.174E+00  0.173E+00  0.474E-01  0.465E-01  0.635E-01  0.635E-01  0.635E-01  0.635E-01
 -7.400  0.189E+00  0.189E+00  0.585E-01  0.578E-01  0.655E-01  0.655E-01  0.655E-01  0.655E-01
 -7.300  0.201E+00  0.200E+00  0.633E-01  0.631E-01  0.686E-01  0.685E-01  0.687E-01  0.686E-01
 -7.200  0.222E+00  0.221E+00  0.633E-01  0.631E-01  0.792E-01  0.790E-01  0.792E-01  0.791E-01
 -7.100  0.238E+00  0.238E+00  0.648E-01  0.646E-01  0.868E-01  0.867E-01  0.868E-01  0.868E-01
 -7.000  0.257E+00  0.257E+00  0.639E-01  0.638E-01  0.965E-01  0.964E-01  0.966E-01  0.964E-01
 -6.900  0.271E+00  0.270E+00  0.651E-01  0.648E-01  0.103E+00  0.103E+00  0.103E+00  0.103E+00
 -6.800  0.248E+00  0.249E+00  0.655E-01  0.654E-01  0.915E-01  0.916E-01  0.914E-01  0.915E-01
 -6.700  0.219E+00  0.219E+00  0.644E-01  0.641E-01  0.774E-01  0.775E-01  0.774E-01  0.775E-01
 -6.600  0.208E+00  0.208E+00  0.670E-01  0.667E-01  0.707E-01  0.707E-01  0.707E-01  0.707E-01
 -6.500  0.196E+00  0.196E+00  0.652E-01  0.652E-01  0.655E-01  0.655E-01  0.655E-01  0.655E-01
 -6.400  0.191E+00  0.190E+00  0.657E-01  0.653E-01  0.624E-01  0.624E-01  0.624E-01  0.624E-01
 -6.300  0.186E+00  0.186E+00  0.680E-01  0.678E-01  0.589E-01  0.590E-01  0.589E-01  0.589E-01
 -6.200  0.176E+00  0.176E+00  0.659E-01  0.659E-01  0.549E-01  0.549E-01  0.549E-01  0.549E-01
 -6.100  0.173E+00  0.172E+00  0.666E-01  0.661E-01  0.531E-01  0.531E-01  0.531E-01  0.531E-01
 -6.000  0.175E+00  0.175E+00  0.699E-01  0.697E-01  0.526E-01  0.526E-01  0.526E-01  0.526E-01
 -5.900  0.166E+00  0.166E+00  0.657E-01  0.658E-01  0.501E-01  0.501E-01  0.500E-01  0.501E-01
 -5.800  0.159E+00  0.158E+00  0.681E-01  0.675E-01  0.453E-01  0.453E-01  0.453E-01  0.452E-01
 -5.700  0.166E+00  0.165E+00  0.710E-01  0.710E-01  0.472E-01  0.472E-01  0.473E-01  0.472E-01
 -5.600  0.160E+00  0.160E+00  0.669E-01  0.668E-01  0.465E-01  0.466E-01  0.465E-01  0.466E-01
 -5.500  0.152E+00  0.151E+00  0.691E-01  0.686E-01  0.412E-01  0.412E-01  0.412E-01  0.412E-01
 -5.400  0.154E+00  0.154E+00  0.716E-01  0.713E-01  0.413E-01  0.412E-01  0.413E-01  0.413E-01
 -5.300  0.157E+00  0.157E+00  0.700E-01  0.698E-01  0.435E-01  0.435E-01  0.435E-01  0.435E-01
 -5.200  0.145E+00  0.145E+00  0.689E-01  0.686E-01  0.381E-01  0.382E-01  0.381E-01  0.381E-01
 -5.100  0.148E+00  0.148E+00  0.719E-01  0.713E-01  0.382E-01  0.381E-01  0.382E-01  0.381E-01
 -5.000  0.151E+00  0.151E+00  0.743E-01  0.742E-01  0.385E-01  0.385E-01  0.385E-01  0.385E-01
 -4.900  0.142E+00  0.142E+00  0.691E-01  0.691E-01  0.363E-01  0.363E-01  0.363E-01  0.363E-01
 -4.800  0.143E+00  0.142E+00  0.713E-01  0.705E-01  0.359E-01  0.359E-01  0.359E-01  0.359E-01
 -4.700  0.146E+00  0.146E+00  0.786E-01  0.782E-01  0.338E-01  0.338E-01  0.338E-01  0.338E-01
 -4.600  0.143E+00  0.143E+00  0.720E-01  0.723E-01  0.354E-01  0.354E-01  0.354E-01  0.354E-01
 -4.500  0.134E+00  0.134E+00  0.701E-01  0.693E-01  0.321E-01  0.321E-01  0.321E-01  0.321E-01
 -4.400  0.145E+00  0.145E+00  0.806E-01  0.798E-01  0.324E-01  0.324E-01  0.324E-01  0.324E-01
 -4.300  0.142E+00  0.142E+00  0.779E-01  0.782E-01  0.321E-01  0.321E-01  0.321E-01  0.321E-01
 -4.200  0.132E+00  0.131E+00  0.712E-01  0.708E-01  0.303E-01  0.303E-01  0.303E-01  0.303E-01
 -4.100  0.141E+00  0.139E+00  0.798E-01  0.787E-01  0.304E-01  0.303E-01  0.304E-01  0.304E-01
 -4.000  0.143E+00  0.143E+00  0.840E-01  0.839E-01  0.293E-01  0.293E-01  0.293E-01  0.293E-01
 -3.900  0.135E+00  0.135E+00  0.773E-01  0.772E-01  0.287E-01  0.286E-01  0.287E-01  0.286E-01
 -3.800  0.135E+00  0.134E+00  0.796E-01  0.787E-01  0.279E-01  0.279E-01  0.279E-01  0.279E-01
 -3.700  0.137E+00  0.137E+00  0.872E-01  0.865E-01  0.250E-01  0.251E-01  0.250E-01  0.250E-01
 -3.600  0.120E+00  0.120E+00  0.869E-01  0.866E-01  0.169E-01  0.170E-01  0.167E-01  0.168E-01
 -3.500  0.988E-01  0.983E-01  0.864E-01  0.857E-01  0.629E-02  0.637E-02  0.616E-02  0.623E-02
 -3.400  0.933E-01  0.925E-01  0.912E-01  0.904E-01  0.104E-02  0.107E-02  0.101E-02  0.103E-02
 -3.300  0.987E-01  0.977E-01  0.986E-01  0.976E-01  0.713E-04  0.734E-04  0.680E-04  0.700E-04
 -3.200  0.107E+00  0.106E+00  0.107E+00  0.106E+00  0.548E-05  0.555E-05  0.537E-05  0.543E-05
 -3.100  0.108E+00  0.107E+00  0.108E+00  0.107E+00  0.383E-05  0.385E-05  0.382E-05  0.385E-05
 -3.000  0.101E+00  0.101E+00  0.101E+00  0.101E+00  0.365E-05  0.364E-05  0.364E-05  0.364E-05
 -2.900  0.109E+00  0.107E+00  0.109E+00  0.107E+00  0.394E-05  0.393E-05  0.394E-05  0.393E-05
 -2.800  0.116E+00  0.114E+00  0.116E+00  0.114E+00  0.369E-05  0.370E-05  0.369E-05  0.370E-05
 -2.700  0.116E+00  0.115E+00  0.116E+00  0.115E+00  0.359E-05  0.357E-05  0.358E-05  0.357E-05
 -2.600  0.112E+00  0.112E+00  0.112E+00  0.112E+00  0.390E-05  0.391E-05  0.389E-05  0.390E-05
 -2.500  0.105E+00  0.105E+00  0.105E+00  0.105E+00  0.354E-05  0.360E-05  0.353E-05  0.360E-05
 -2.400  0.782E-01  0.797E-01  0.782E-01  0.797E-01  0.257E-05  0.263E-05  0.257E-05  0.263E-05
 -2.300  0.643E-01  0.638E-01  0.643E-01  0.638E-01  0.241E-05  0.240E-05  0.240E-05  0.240E-05
 -2.200  0.711E-01  0.702E-01  0.711E-01  0.702E-01  0.271E-05  0.273E-05  0.271E-05  0.272E-05
 -2.100  0.606E-01  0.613E-01  0.605E-01  0.613E-01  0.222E-05  0.228E-05  0.222E-05  0.228E-05
 -2.000  0.456E-01  0.456E-01  0.456E-01  0.456E-01  0.175E-05  0.177E-05  0.175E-05  0.177E-05
 -1.900  0.485E-01  0.476E-01  0.485E-01  0.476E-01  0.198E-05  0.198E-05  0.198E-05  0.197E-05
 -1.800  0.482E-01  0.482E-01  0.482E-01  0.482E-01  0.199E-05  0.203E-05  0.199E-05  0.203E-05
 -1.700  0.358E-01  0.360E-01  0.358E-01  0.360E-01  0.146E-05  0.150E-05  0.146E-05  0.150E-05
 -1.600  0.334E-01  0.328E-01  0.334E-01  0.328E-01  0.141E-05  0.142E-05  0.141E-05  0.141E-05
 -1.500  0.345E-01  0.342E-01  0.345E-01  0.342E-01  0.154E-05  0.156E-05  0.153E-05  0.156E-05
 -1.400  0.282E-01  0.283E-01  0.282E-01  0.283E-01  0.128E-05  0.131E-05  0.128E-05  0.131E-05
 -1.300  0.230E-01  0.226E-01  0.230E-01  0.226E-01  0.100E-05  0.102E-05  0.100E-05  0.102E-05
 -1.200  0.231E-01  0.227E-01  0.231E-01  0.227E-01  0.105E-05  0.107E-05  0.105E-05  0.107E-05
 -1.100  0.188E-01  0.188E-01  0.188E-01  0.188E-01  0.918E-06  0.949E-06  0.918E-06  0.948E-06
 -1.000  0.153E-01  0.148E-01  0.153E-01  0.148E-01  0.618E-06  0.627E-06  0.618E-06  0.627E-06
 -0.900  0.142E-01  0.142E-01  0.142E-01  0.142E-01  0.465E-06  0.476E-06  0.465E-06  0.476E-06
 -0.800  0.107E-01  0.106E-01  0.107E-01  0.106E-01  0.275E-06  0.282E-06  0.275E-06  0.281E-06
 -0.700  0.103E-01  0.999E-02  0.103E-01  0.999E-02  0.189E-06  0.193E-06  0.188E-06  0.193E-06
 -0.600  0.834E-02  0.856E-02  0.834E-02  0.856E-02  0.122E-06  0.134E-06  0.122E-06  0.134E-06
 -0.500  0.597E-02  0.621E-02  0.597E-02  0.621E-02  0.960E-07  0.910E-07  0.959E-07  0.909E-07
 -0.400  0.722E-02  0.711E-02  0.722E-02  0.711E-02  0.212E-06  0.184E-06  0.211E-06  0.184E-06
 -0.300  0.847E-02  0.881E-02  0.847E-02  0.881E-02  0.304E-06  0.295E-06  0.304E-06  0.295E-06
 -0.200  0.776E-02  0.795E-02  0.776E-02  0.795E-02  0.387E-06  0.373E-06  0.387E-06  0.372E-06
 -0.100  0.120E-01  0.118E-01  0.120E-01  0.118E-01  0.762E-06  0.725E-06  0.762E-06  0.724E-06
  0.000  0.145E-01  0.151E-01  0.145E-01  0.151E-01  0.107E-05  0.106E-05  0.107E-05  0.106E-05
  0.100  0.149E-01  0.151E-01  0.149E-01  0.151E-01  0.124E-05  0.121E-05  0.124E-05  0.121E-05
  0.200  0.211E-01  0.210E-01  0.211E-01  0.210E-01  0.168E-05  0.162E-05  0.168E-05  0.161E-05
  0.300  0.261E-01  0.267E-01  0.261E-01  0.267E-01  0.210E-05  0.207E-05  0.210E-05  0.207E-05
  0.400  0.270E-01  0.275E-01  0.270E-01  0.275E-01  0.220E-05  0.218E-05  0.220E-05  0.218E-05
  0.500  0.314E-01  0.311E-01  0.314E-01  0.311E-01  0.258E-05  0.250E-05  0.258E-05  0.250E-05
  0.600  0.441E-01  0.441E-01  0.441E-01  0.441E-01  0.364E-05  0.357E-05  0.364E-05  0.357E-05
  0.700  0.467E-01  0.477E-01  0.467E-01  0.477E-01  0.377E-05  0.379E-05  0.377E-05  0.379E-05
  0.800  0.523E-01  0.518E-01  0.523E-01  0.518E-01  0.414E-05  0.402E-05  0.414E-05  0.402E-05
  0.900  0.872E-01  0.861E-01  0.872E-01  0.861E-01  0.660E-05  0.644E-05  0.660E-05  0.644E-05
  1.000  0.107E+00  0.108E+00  0.107E+00  0.108E+00  0.751E-05  0.754E-05  0.751E-05  0.754E-05
  1.100  0.995E-01  0.100E+00  0.995E-01  0.100E+00  0.699E-05  0.692E-05  0.699E-05  0.692E-05
  1.200  0.106E+00  0.105E+00  0.106E+00  0.105E+00  0.833E-05  0.815E-05  0.833E-05  0.815E-05
  1.300  0.116E+00  0.116E+00  0.116E+00  0.116E+00  0.951E-05  0.945E-05  0.951E-05  0.945E-05
  1.400  0.112E+00  0.113E+00  0.112E+00  0.113E+00  0.915E-05  0.918E-05  0.915E-05  0.918E-05
  1.500  0.105E+00  0.106E+00  0.105E+00  0.106E+00  0.903E-05  0.903E-05  0.902E-05  0.902E-05
  1.600  0.102E+00  0.103E+00  0.102E+00  0.103E+00  0.963E-05  0.963E-05  0.962E-05  0.962E-05
  1.700  0.926E-01  0.944E-01  0.926E-01  0.944E-01  0.933E-05  0.943E-05  0.932E-05  0.943E-05
  1.800  0.763E-01  0.777E-01  0.763E-01  0.777E-01  0.803E-05  0.812E-05  0.803E-05  0.811E-05
  1.900  0.743E-01  0.744E-01  0.743E-01  0.744E-01  0.835E-05  0.829E-05  0.834E-05  0.829E-05
  2.000  0.796E-01  0.800E-01  0.796E-01  0.799E-01  0.948E-05  0.945E-05  0.947E-05  0.945E-05
  2.100  0.751E-01  0.763E-01  0.751E-01  0.763E-01  0.939E-05  0.948E-05  0.938E-05  0.947E-05
  2.200  0.639E-01  0.649E-01  0.638E-01  0.649E-01  0.836E-05  0.845E-05  0.836E-05  0.845E-05
  2.300  0.629E-01  0.628E-01  0.629E-01  0.628E-01  0.865E-05  0.859E-05  0.864E-05  0.858E-05
  2.400  0.708E-01  0.708E-01  0.708E-01  0.708E-01  0.102E-04  0.102E-04  0.102E-04  0.102E-04
  2.500  0.669E-01  0.680E-01  0.669E-01  0.680E-01  0.101E-04  0.102E-04  0.101E-04  0.102E-04
  2.600  0.566E-01  0.574E-01  0.566E-01  0.574E-01  0.902E-05  0.910E-05  0.902E-05  0.910E-05
  2.700  0.568E-01  0.567E-01  0.568E-01  0.567E-01  0.965E-05  0.961E-05  0.965E-05  0.961E-05
  2.800  0.625E-01  0.624E-01  0.624E-01  0.623E-01  0.137E-04  0.136E-04  0.137E-04  0.136E-04
  2.900  0.627E-01  0.634E-01  0.626E-01  0.633E-01  0.331E-04  0.328E-04  0.331E-04  0.328E-04
  3.000  0.541E-01  0.551E-01  0.540E-01  0.549E-01  0.868E-04  0.862E-04  0.868E-04  0.862E-04
  3.100  0.496E-01  0.496E-01  0.492E-01  0.493E-01  0.169E-03  0.168E-03  0.169E-03  0.168E-03
  3.200  0.582E-01  0.577E-01  0.577E-01  0.572E-01  0.253E-03  0.252E-03  0.253E-03  0.252E-03
  3.300  0.603E-01  0.610E-01  0.597E-01  0.603E-01  0.328E-03  0.327E-03  0.328E-03  0.327E-03
  3.400  0.513E-01  0.521E-01  0.505E-01  0.513E-01  0.399E-03  0.398E-03  0.399E-03  0.398E-03
  3.500  0.494E-01  0.495E-01  0.485E-01  0.485E-01  0.465E-03  0.464E-03  0.465E-03  0.464E-03
  3.600  0.510E-01  0.510E-01  0.500E-01  0.499E-01  0.522E-03  0.521E-03  0.522E-03  0.521E-03
  3.700  0.558E-01  0.557E-01  0.547E-01  0.545E-01  0.566E-03  0.565E-03  0.566E-03  0.565E-03
  3.800  0.548E-01  0.556E-01  0.536E-01  0.544E-01  0.605E-03  0.604E-03  0.605E-03  0.604E-03
  3.900  0.439E-01  0.447E-01  0.426E-01  0.434E-01  0.624E-03  0.623E-03  0.624E-03  0.623E-03
  4.000  0.459E-01  0.453E-01  0.446E-01  0.440E-01  0.658E-03  0.656E-03  0.658E-03  0.657E-03
  4.100  0.538E-01  0.538E-01  0.524E-01  0.524E-01  0.673E-03  0.672E-03  0.673E-03  0.672E-03
  4.200  0.501E-01  0.507E-01  0.487E-01  0.493E-01  0.711E-03  0.711E-03  0.712E-03  0.711E-03
  4.300  0.460E-01  0.464E-01  0.446E-01  0.449E-01  0.717E-03  0.716E-03  0.717E-03  0.717E-03
  4.400  0.434E-01  0.438E-01  0.419E-01  0.423E-01  0.734E-03  0.733E-03  0.735E-03  0.734E-03
  4.500  0.440E-01  0.437E-01  0.425E-01  0.422E-01  0.750E-03  0.749E-03  0.750E-03  0.750E-03
  4.600  0.509E-01  0.508E-01  0.495E-01  0.493E-01  0.730E-03  0.729E-03  0.731E-03  0.730E-03
  4.700  0.470E-01  0.479E-01  0.455E-01  0.464E-01  0.754E-03  0.754E-03  0.755E-03  0.754E-03
  4.800  0.386E-01  0.389E-01  0.371E-01  0.375E-01  0.735E-03  0.735E-03  0.736E-03  0.736E-03
  4.900  0.420E-01  0.416E-01  0.406E-01  0.402E-01  0.707E-03  0.706E-03  0.707E-03  0.706E-03
  5.000  0.457E-01  0.458E-01  0.442E-01  0.443E-01  0.735E-03  0.735E-03  0.736E-03  0.735E-03
  5.100  0.446E-01  0.448E-01  0.432E-01  0.434E-01  0.704E-03  0.704E-03  0.704E-03  0.704E-03
  5.200  0.428E-01  0.432E-01  0.414E-01  0.419E-01  0.661E-03  0.661E-03  0.662E-03  0.661E-03
  5.300  0.377E-01  0.381E-01  0.363E-01  0.366E-01  0.704E-03  0.703E-03  0.704E-03  0.703E-03
  5.400  0.407E-01  0.402E-01  0.393E-01  0.389E-01  0.670E-03  0.670E-03  0.670E-03  0.670E-03
  5.500  0.455E-01  0.456E-01  0.442E-01  0.444E-01  0.625E-03  0.624E-03  0.626E-03  0.624E-03
  5.600  0.398E-01  0.405E-01  0.384E-01  0.391E-01  0.686E-03  0.685E-03  0.686E-03  0.686E-03
  5.700  0.315E-01  0.320E-01  0.302E-01  0.307E-01  0.633E-03  0.637E-03  0.633E-03  0.638E-03
  5.800  0.288E-01  0.288E-01  0.277E-01  0.278E-01  0.528E-03  0.530E-03  0.528E-03  0.531E-03
  5.900  0.371E-01  0.367E-01  0.359E-01  0.355E-01  0.598E-03  0.597E-03  0.598E-03  0.598E-03
  6.000  0.433E-01  0.434E-01  0.420E-01  0.421E-01  0.655E-03  0.654E-03  0.655E-03  0.654E-03
  6.100  0.404E-01  0.407E-01  0.393E-01  0.396E-01  0.571E-03  0.571E-03  0.572E-03  0.571E-03
  6.200  0.360E-01  0.362E-01  0.350E-01  0.352E-01  0.516E-03  0.515E-03  0.517E-03  0.515E-03
  6.300  0.358E-01  0.357E-01  0.347E-01  0.346E-01  0.565E-03  0.563E-03  0.565E-03  0.564E-03
  6.400  0.383E-01  0.382E-01  0.372E-01  0.371E-01  0.546E-03  0.546E-03  0.547E-03  0.547E-03
  6.500  0.383E-01  0.386E-01  0.373E-01  0.376E-01  0.498E-03  0.495E-03  0.498E-03  0.495E-03
  6.600  0.355E-01  0.358E-01  0.335E-01  0.339E-01  0.976E-03  0.945E-03  0.974E-03  0.944E-03
  6.700  0.377E-01  0.375E-01  0.316E-01  0.316E-01  0.305E-02  0.297E-02  0.305E-02  0.296E-02
  6.800  0.466E-01  0.462E-01  0.340E-01  0.339E-01  0.627E-02  0.618E-02  0.626E-02  0.617E-02
  6.900  0.505E-01  0.507E-01  0.322E-01  0.325E-01  0.917E-02  0.909E-02  0.915E-02  0.908E-02
  7.000  0.560E-01  0.559E-01  0.312E-01  0.314E-01  0.124E-01  0.123E-01  0.124E-01  0.123E-01
  7.100  0.646E-01  0.647E-01  0.323E-01  0.326E-01  0.162E-01  0.161E-01  0.161E-01  0.161E-01
  7.200  0.685E-01  0.685E-01  0.305E-01  0.305E-01  0.190E-01  0.190E-01  0.190E-01  0.190E-01
  7.300  0.725E-01  0.724E-01  0.316E-01  0.314E-01  0.205E-01  0.205E-01  0.205E-01  0.205E-01
  7.400  0.795E-01  0.796E-01  0.316E-01  0.318E-01  0.240E-01  0.239E-01  0.240E-01  0.239E-01
  7.500  0.880E-01  0.881E-01  0.316E-01  0.317E-01  0.282E-01  0.282E-01  0.281E-01  0.281E-01
  7.600  0.981E-01  0.980E-01  0.304E-01  0.305E-01  0.339E-01  0.339E-01  0.337E-01  0.337E-01
  7.700  0.142E+00  0.142E+00  0.308E-01  0.307E-01  0.560E-01  0.557E-01  0.556E-01  0.553E-01
  7.800  0.197E+00  0.197E+00  0.303E-01  0.305E-01  0.835E-01  0.835E-01  0.832E-01  0.831E-01
  7.900  0.189E+00  0.190E+00  0.276E-01  0.277E-01  0.807E-01  0.812E-01  0.806E-01  0.811E-01
  8.000  0.141E+00  0.142E+00  0.242E-01  0.243E-01  0.585E-01  0.589E-01  0.586E-01  0.590E-01
  8.100  0.112E+00  0.112E+00  0.238E-01  0.236E-01  0.439E-01  0.441E-01  0.439E-01  0.441E-01
  8.200  0.923E-01  0.930E-01  0.232E-01  0.235E-01  0.345E-01  0.348E-01  0.346E-01  0.348E-01
  8.300  0.717E-01  0.725E-01  0.205E-01  0.209E-01  0.256E-01  0.258E-01  0.256E-01  0.258E-01
  8.400  0.623E-01  0.629E-01  0.191E-01  0.197E-01  0.216E-01  0.216E-01  0.216E-01  0.216E-01
  8.500  0.543E-01  0.550E-01  0.139E-01  0.145E-01  0.202E-01  0.202E-01  0.202E-01  0.202E-01
  8.600  0.387E-01  0.390E-01  0.608E-02  0.634E-02  0.163E-01  0.163E-01  0.163E-01  0.164E-01
  8.700  0.331E-01  0.331E-01  0.155E-02  0.159E-02  0.158E-01  0.158E-01  0.158E-01  0.158E-01
  8.800  0.321E-01  0.323E-01  0.455E-03  0.459E-03  0.158E-01  0.159E-01  0.158E-01  0.159E-01
  8.900  0.237E-01  0.238E-01  0.298E-03  0.299E-03  0.117E-01  0.118E-01  0.117E-01  0.118E-01
  9.000  0.214E-01  0.214E-01  0.239E-03  0.240E-03  0.106E-01  0.106E-01  0.106E-01  0.106E-01
  9.100  0.263E-01  0.262E-01  0.237E-03  0.237E-03  0.130E-01  0.130E-01  0.130E-01  0.130E-01
  9.200  0.285E-01  0.286E-01  0.241E-03  0.242E-03  0.141E-01  0.142E-01  0.141E-01  0.142E-01
  9.300  0.197E-01  0.200E-01  0.200E-03  0.200E-03  0.975E-02  0.988E-02  0.975E-02  0.989E-02
  9.400  0.147E-01  0.147E-01  0.187E-03  0.187E-03  0.727E-02  0.727E-02  0.726E-02  0.727E-02
  9.500  0.192E-01  0.191E-01  0.206E-03  0.206E-03  0.949E-02  0.943E-02  0.948E-02  0.942E-02
  9.600  0.240E-01  0.240E-01  0.202E-03  0.203E-03  0.119E-01  0.119E-01  0.119E-01  0.119E-01
  9.700  0.208E-01  0.210E-01  0.186E-03  0.187E-03  0.103E-01  0.104E-01  0.103E-01  0.104E-01
  9.800  0.136E-01  0.138E-01  0.176E-03  0.177E-03  0.673E-02  0.681E-02  0.672E-02  0.681E-02
  9.900  0.128E-01  0.128E-01  0.198E-03  0.198E-03  0.633E-02  0.632E-02  0.632E-02  0.631E-02
 10.000  0.161E-01  0.160E-01  0.235E-03  0.235E-03  0.795E-02  0.791E-02  0.795E-02  0.790E-02
 10.100  0.193E-01  0.193E-01  0.275E-03  0.275E-03  0.951E-02  0.952E-02  0.951E-02  0.952E-02
 10.200  0.156E-01  0.159E-01  0.338E-03  0.338E-03  0.766E-02  0.778E-02  0.766E-02  0.778E-02
 10.300  0.106E-01  0.107E-01  0.423E-03  0.423E-03  0.511E-02  0.516E-02  0.511E-02  0.516E-02
 10.400  0.119E-01  0.118E-01  0.513E-03  0.513E-03  0.568E-02  0.564E-02  0.567E-02  0.564E-02
 10.500  0.140E-01  0.140E-01  0.647E-03  0.649E-03  0.667E-02  0.668E-02  0.667E-02  0.667E-02
 10.600  0.127E-01  0.129E-01  0.676E-03  0.687E-03  0.604E-02  0.612E-02  0.604E-02  0.611E-02
 10.700  0.866E-02  0.884E-02  0.510E-03  0.525E-03  0.407E-02  0.416E-02  0.407E-02  0.416E-02
 10.800  0.737E-02  0.738E-02  0.392E-03  0.398E-03  0.349E-02  0.349E-02  0.349E-02  0.349E-02
 10.900  0.103E-01  0.103E-01  0.413E-03  0.413E-03  0.496E-02  0.492E-02  0.496E-02  0.492E-02
 11.000  0.135E-01  0.135E-01  0.592E-03  0.588E-03  0.648E-02  0.645E-02  0.647E-02  0.644E-02
 11.100  0.132E-01  0.132E-01  0.814E-03  0.815E-03  0.619E-02  0.621E-02  0.619E-02  0.621E-02
 11.200  0.928E-02  0.939E-02  0.838E-03  0.846E-03  0.422E-02  0.427E-02  0.422E-02  0.427E-02
 11.300  0.872E-02  0.871E-02  0.754E-03  0.761E-03  0.398E-02  0.398E-02  0.398E-02  0.397E-02
 11.400  0.129E-01  0.129E-01  0.749E-03  0.754E-03  0.608E-02  0.606E-02  0.608E-02  0.605E-02
 11.500  0.132E-01  0.133E-01  0.761E-03  0.767E-03  0.622E-02  0.626E-02  0.622E-02  0.626E-02
 11.600  0.948E-02  0.961E-02  0.618E-03  0.624E-03  0.443E-02  0.449E-02  0.443E-02  0.449E-02
 11.700  0.773E-02  0.777E-02  0.431E-03  0.435E-03  0.365E-02  0.367E-02  0.365E-02  0.367E-02
 11.800  0.812E-02  0.811E-02  0.317E-03  0.315E-03  0.390E-02  0.390E-02  0.390E-02  0.389E-02
 11.900  0.111E-01  0.111E-01  0.243E-03  0.238E-03  0.542E-02  0.543E-02  0.541E-02  0.543E-02
 12.000  0.119E-01  0.120E-01  0.118E-03  0.117E-03  0.590E-02  0.592E-02  0.589E-02  0.592E-02
 12.100  0.947E-02  0.946E-02  0.339E-04  0.342E-04  0.472E-02  0.472E-02  0.472E-02  0.471E-02
 12.200  0.737E-02  0.736E-02  0.196E-04  0.199E-04  0.368E-02  0.367E-02  0.368E-02  0.367E-02
 12.300  0.524E-02  0.525E-02  0.139E-04  0.142E-04  0.261E-02  0.262E-02  0.261E-02  0.262E-02
 12.400  0.343E-02  0.346E-02  0.589E-05  0.606E-05  0.171E-02  0.173E-02  0.171E-02  0.172E-02
 12.500  0.315E-02  0.316E-02  0.328E-05  0.335E-05  0.157E-02  0.158E-02  0.157E-02  0.158E-02
 12.600  0.245E-02  0.247E-02  0.200E-05  0.204E-05  0.122E-02  0.123E-02  0.122E-02  0.123E-02
 12.700  0.146E-02  0.147E-02  0.629E-06  0.640E-06  0.729E-03  0.736E-03  0.729E-03  0.737E-03
 12.800  0.182E-02  0.183E-02  0.239E-06  0.243E-06  0.908E-03  0.915E-03  0.908E-03  0.915E-03
 12.900  0.198E-02  0.199E-02  0.241E-06  0.241E-06  0.990E-03  0.994E-03  0.990E-03  0.994E-03
 13.000  0.183E-02  0.184E-02  0.162E-06  0.160E-06  0.914E-03  0.918E-03  0.914E-03  0.918E-03
 13.100  0.198E-02  0.198E-02  0.713E-07  0.710E-07  0.990E-03  0.992E-03  0.990E-03  0.992E-03
 13.200  0.139E-02  0.137E-02  0.264E-07  0.265E-07  0.693E-03  0.687E-03  0.693E-03  0.687E-03
 13.300  0.460E-03  0.451E-03  0.526E-08  0.525E-08  0.230E-03  0.226E-03  0.230E-03  0.226E-03
 13.400  0.726E-04  0.703E-04  0.393E-09  0.388E-09  0.363E-04  0.351E-04  0.363E-04  0.351E-04
 13.500  0.501E-05  0.477E-05  0.101E-10  0.986E-11  0.251E-05  0.239E-05  0.250E-05  0.239E-05
 13.600  0.133E-06  0.124E-06  0.889E-13  0.853E-13  0.663E-07  0.621E-07  0.663E-07  0.621E-07
 13.700  0.125E-08  0.115E-08  0.265E-15  0.250E-15  0.623E-09  0.573E-09  0.623E-09  0.573E-09
